#  E (eV)   dos(E)     Int dos(E) EFermi =    7.311 eV
  -5.000  0.1556E-15  0.1556E-17
  -4.990  0.2800E-15  0.4356E-17
  -4.980  0.5016E-15  0.9372E-17
  -4.970  0.8942E-15  0.1831E-16
  -4.960  0.1586E-14  0.3417E-16
  -4.950  0.2799E-14  0.6216E-16
  -4.940  0.4916E-14  0.1113E-15
  -4.930  0.8591E-14  0.1972E-15
  -4.920  0.1494E-13  0.3466E-15
  -4.910  0.2585E-13  0.6051E-15
  -4.900  0.4451E-13  0.1050E-14
  -4.890  0.7626E-13  0.1813E-14
  -4.880  0.1300E-12  0.3113E-14
  -4.870  0.2206E-12  0.5319E-14
  -4.860  0.3724E-12  0.9043E-14
  -4.850  0.6256E-12  0.1530E-13
  -4.840  0.1046E-11  0.2576E-13
  -4.830  0.1739E-11  0.4315E-13
  -4.820  0.2879E-11  0.7194E-13
  -4.810  0.4742E-11  0.1194E-12
  -4.800  0.7772E-11  0.1971E-12
  -4.790  0.1268E-10  0.3238E-12
  -4.780  0.2057E-10  0.5295E-12
  -4.770  0.3322E-10  0.8618E-12
  -4.760  0.5339E-10  0.1396E-11
  -4.750  0.8537E-10  0.2249E-11
  -4.740  0.1359E-09  0.3608E-11
  -4.730  0.2151E-09  0.5759E-11
  -4.720  0.3390E-09  0.9149E-11
  -4.710  0.5315E-09  0.1446E-10
  -4.700  0.8293E-09  0.2276E-10
  -4.690  0.1288E-08  0.3563E-10
  -4.680  0.1990E-08  0.5553E-10
  -4.670  0.3059E-08  0.8612E-10
  -4.660  0.4680E-08  0.1329E-09
  -4.650  0.7126E-08  0.2042E-09
  -4.640  0.1080E-07  0.3122E-09
  -4.630  0.1628E-07  0.4749E-09
  -4.620  0.2442E-07  0.7192E-09
  -4.610  0.3647E-07  0.1084E-08
  -4.600  0.5418E-07  0.1626E-08
  -4.590  0.8011E-07  0.2427E-08
  -4.580  0.1179E-06  0.3605E-08
  -4.570  0.1726E-06  0.5331E-08
  -4.560  0.2515E-06  0.7846E-08
  -4.550  0.3646E-06  0.1149E-07
  -4.540  0.5262E-06  0.1675E-07
  -4.530  0.7556E-06  0.2431E-07
  -4.520  0.1080E-05  0.3511E-07
  -4.510  0.1535E-05  0.5046E-07
  -4.500  0.2173E-05  0.7219E-07
  -4.490  0.3061E-05  0.1028E-06
  -4.480  0.4290E-05  0.1457E-06
  -4.470  0.5984E-05  0.2055E-06
  -4.460  0.8306E-05  0.2886E-06
  -4.450  0.1147E-04  0.4033E-06
  -4.440  0.1578E-04  0.5611E-06
  -4.430  0.2158E-04  0.7769E-06
  -4.420  0.2939E-04  0.1071E-05
  -4.410  0.3983E-04  0.1469E-05
  -4.400  0.5372E-04  0.2006E-05
  -4.390  0.7210E-04  0.2727E-05
  -4.380  0.9631E-04  0.3690E-05
  -4.370  0.1280E-03  0.4971E-05
  -4.360  0.1694E-03  0.6665E-05
  -4.350  0.2231E-03  0.8896E-05
  -4.340  0.2924E-03  0.1182E-04
  -4.330  0.3814E-03  0.1563E-04
  -4.320  0.4952E-03  0.2059E-04
  -4.310  0.6399E-03  0.2699E-04
  -4.300  0.8230E-03  0.3522E-04
  -4.290  0.1054E-02  0.4575E-04
  -4.280  0.1342E-02  0.5918E-04
  -4.270  0.1702E-02  0.7620E-04
  -4.260  0.2149E-02  0.9769E-04
  -4.250  0.2700E-02  0.1247E-03
  -4.240  0.3376E-02  0.1584E-03
  -4.230  0.4203E-02  0.2005E-03
  -4.220  0.5208E-02  0.2526E-03
  -4.210  0.6424E-02  0.3168E-03
  -4.200  0.7888E-02  0.3957E-03
  -4.190  0.9641E-02  0.4921E-03
  -4.180  0.1173E-01  0.6094E-03
  -4.170  0.1421E-01  0.7515E-03
  -4.160  0.1713E-01  0.9228E-03
  -4.150  0.2057E-01  0.1128E-02
  -4.140  0.2458E-01  0.1374E-02
  -4.130  0.2924E-01  0.1667E-02
  -4.120  0.3464E-01  0.2013E-02
  -4.110  0.4085E-01  0.2422E-02
  -4.100  0.4797E-01  0.2901E-02
  -4.090  0.5609E-01  0.3462E-02
  -4.080  0.6530E-01  0.4115E-02
  -4.070  0.7570E-01  0.4872E-02
  -4.060  0.8739E-01  0.5746E-02
  -4.050  0.1005E+00  0.6751E-02
  -4.040  0.1150E+00  0.7901E-02
  -4.030  0.1311E+00  0.9212E-02
  -4.020  0.1489E+00  0.1070E-01
  -4.010  0.1684E+00  0.1238E-01
  -4.000  0.1896E+00  0.1428E-01
  -3.990  0.2128E+00  0.1641E-01
  -3.980  0.2378E+00  0.1879E-01
  -3.970  0.2647E+00  0.2143E-01
  -3.960  0.2936E+00  0.2437E-01
  -3.950  0.3245E+00  0.2761E-01
  -3.940  0.3572E+00  0.3119E-01
  -3.930  0.3918E+00  0.3511E-01
  -3.920  0.4283E+00  0.3939E-01
  -3.910  0.4665E+00  0.4405E-01
  -3.900  0.5064E+00  0.4912E-01
  -3.890  0.5479E+00  0.5460E-01
  -3.880  0.5908E+00  0.6050E-01
  -3.870  0.6351E+00  0.6686E-01
  -3.860  0.6805E+00  0.7366E-01
  -3.850  0.7269E+00  0.8093E-01
  -3.840  0.7743E+00  0.8867E-01
  -3.830  0.8222E+00  0.9689E-01
  -3.820  0.8708E+00  0.1056E+00
  -3.810  0.9196E+00  0.1148E+00
  -3.800  0.9686E+00  0.1245E+00
  -3.790  0.1018E+01  0.1347E+00
  -3.780  0.1067E+01  0.1453E+00
  -3.770  0.1115E+01  0.1565E+00
  -3.760  0.1163E+01  0.1681E+00
  -3.750  0.1211E+01  0.1802E+00
  -3.740  0.1257E+01  0.1928E+00
  -3.730  0.1303E+01  0.2058E+00
  -3.720  0.1348E+01  0.2193E+00
  -3.710  0.1392E+01  0.2332E+00
  -3.700  0.1436E+01  0.2476E+00
  -3.690  0.1477E+01  0.2624E+00
  -3.680  0.1518E+01  0.2775E+00
  -3.670  0.1558E+01  0.2931E+00
  -3.660  0.1597E+01  0.3091E+00
  -3.650  0.1635E+01  0.3254E+00
  -3.640  0.1672E+01  0.3422E+00
  -3.630  0.1708E+01  0.3592E+00
  -3.620  0.1743E+01  0.3767E+00
  -3.610  0.1778E+01  0.3944E+00
  -3.600  0.1812E+01  0.4126E+00
  -3.590  0.1846E+01  0.4310E+00
  -3.580  0.1880E+01  0.4498E+00
  -3.570  0.1914E+01  0.4690E+00
  -3.560  0.1949E+01  0.4885E+00
  -3.550  0.1984E+01  0.5083E+00
  -3.540  0.2021E+01  0.5285E+00
  -3.530  0.2058E+01  0.5491E+00
  -3.520  0.2097E+01  0.5701E+00
  -3.510  0.2137E+01  0.5914E+00
  -3.500  0.2180E+01  0.6132E+00
  -3.490  0.2225E+01  0.6355E+00
  -3.480  0.2273E+01  0.6582E+00
  -3.470  0.2323E+01  0.6814E+00
  -3.460  0.2377E+01  0.7052E+00
  -3.450  0.2434E+01  0.7296E+00
  -3.440  0.2495E+01  0.7545E+00
  -3.430  0.2560E+01  0.7801E+00
  -3.420  0.2629E+01  0.8064E+00
  -3.410  0.2703E+01  0.8334E+00
  -3.400  0.2781E+01  0.8612E+00
  -3.390  0.2864E+01  0.8899E+00
  -3.380  0.2952E+01  0.9194E+00
  -3.370  0.3045E+01  0.9498E+00
  -3.360  0.3143E+01  0.9813E+00
  -3.350  0.3246E+01  0.1014E+01
  -3.340  0.3355E+01  0.1047E+01
  -3.330  0.3468E+01  0.1082E+01
  -3.320  0.3586E+01  0.1118E+01
  -3.310  0.3709E+01  0.1155E+01
  -3.300  0.3837E+01  0.1193E+01
  -3.290  0.3970E+01  0.1233E+01
  -3.280  0.4106E+01  0.1274E+01
  -3.270  0.4247E+01  0.1317E+01
  -3.260  0.4391E+01  0.1360E+01
  -3.250  0.4539E+01  0.1406E+01
  -3.240  0.4689E+01  0.1453E+01
  -3.230  0.4842E+01  0.1501E+01
  -3.220  0.4997E+01  0.1551E+01
  -3.210  0.5153E+01  0.1603E+01
  -3.200  0.5310E+01  0.1656E+01
  -3.190  0.5467E+01  0.1710E+01
  -3.180  0.5623E+01  0.1767E+01
  -3.170  0.5779E+01  0.1824E+01
  -3.160  0.5932E+01  0.1884E+01
  -3.150  0.6083E+01  0.1945E+01
  -3.140  0.6230E+01  0.2007E+01
  -3.130  0.6373E+01  0.2071E+01
  -3.120  0.6510E+01  0.2136E+01
  -3.110  0.6640E+01  0.2202E+01
  -3.100  0.6763E+01  0.2270E+01
  -3.090  0.6876E+01  0.2338E+01
  -3.080  0.6980E+01  0.2408E+01
  -3.070  0.7072E+01  0.2479E+01
  -3.060  0.7152E+01  0.2551E+01
  -3.050  0.7217E+01  0.2623E+01
  -3.040  0.7267E+01  0.2695E+01
  -3.030  0.7300E+01  0.2768E+01
  -3.020  0.7314E+01  0.2841E+01
  -3.010  0.7309E+01  0.2915E+01
  -3.000  0.7284E+01  0.2987E+01
  -2.990  0.7237E+01  0.3060E+01
  -2.980  0.7167E+01  0.3131E+01
  -2.970  0.7073E+01  0.3202E+01
  -2.960  0.6955E+01  0.3272E+01
  -2.950  0.6813E+01  0.3340E+01
  -2.940  0.6647E+01  0.3406E+01
  -2.930  0.6457E+01  0.3471E+01
  -2.920  0.6242E+01  0.3533E+01
  -2.910  0.6006E+01  0.3593E+01
  -2.900  0.5748E+01  0.3651E+01
  -2.890  0.5470E+01  0.3706E+01
  -2.880  0.5174E+01  0.3757E+01
  -2.870  0.4862E+01  0.3806E+01
  -2.860  0.4537E+01  0.3851E+01
  -2.850  0.4202E+01  0.3893E+01
  -2.840  0.3859E+01  0.3932E+01
  -2.830  0.3512E+01  0.3967E+01
  -2.820  0.3163E+01  0.3999E+01
  -2.810  0.2816E+01  0.4027E+01
  -2.800  0.2474E+01  0.4052E+01
  -2.790  0.2139E+01  0.4073E+01
  -2.780  0.1815E+01  0.4091E+01
  -2.770  0.1505E+01  0.4106E+01
  -2.760  0.1210E+01  0.4118E+01
  -2.750  0.9331E+00  0.4128E+01
  -2.740  0.6756E+00  0.4134E+01
  -2.730  0.4391E+00  0.4139E+01
  -2.720  0.2245E+00  0.4141E+01
  -2.710  0.3245E-01  0.4141E+01
  -2.700 -0.1368E+00  0.4140E+01
  -2.690 -0.2834E+00  0.4137E+01
  -2.680 -0.4077E+00  0.4133E+01
  -2.670 -0.5104E+00  0.4128E+01
  -2.660 -0.5927E+00  0.4122E+01
  -2.650 -0.6558E+00  0.4115E+01
  -2.640 -0.7010E+00  0.4108E+01
  -2.630 -0.7301E+00  0.4101E+01
  -2.620 -0.7445E+00  0.4094E+01
  -2.610 -0.7462E+00  0.4086E+01
  -2.600 -0.7368E+00  0.4079E+01
  -2.590 -0.7181E+00  0.4072E+01
  -2.580 -0.6917E+00  0.4065E+01
  -2.570 -0.6593E+00  0.4058E+01
  -2.560 -0.6222E+00  0.4052E+01
  -2.550 -0.5819E+00  0.4046E+01
  -2.540 -0.5395E+00  0.4041E+01
  -2.530 -0.4962E+00  0.4036E+01
  -2.520 -0.4528E+00  0.4031E+01
  -2.510 -0.4101E+00  0.4027E+01
  -2.500 -0.3688E+00  0.4023E+01
  -2.490 -0.3294E+00  0.4020E+01
  -2.480 -0.2922E+00  0.4017E+01
  -2.470 -0.2575E+00  0.4015E+01
  -2.460 -0.2254E+00  0.4012E+01
  -2.450 -0.1961E+00  0.4010E+01
  -2.440 -0.1696E+00  0.4009E+01
  -2.430 -0.1457E+00  0.4007E+01
  -2.420 -0.1245E+00  0.4006E+01
  -2.410 -0.1057E+00  0.4005E+01
  -2.400 -0.8925E-01  0.4004E+01
  -2.390 -0.7491E-01  0.4003E+01
  -2.380 -0.6252E-01  0.4003E+01
  -2.370 -0.5188E-01  0.4002E+01
  -2.360 -0.4281E-01  0.4002E+01
  -2.350 -0.3513E-01  0.4001E+01
  -2.340 -0.2866E-01  0.4001E+01
  -2.330 -0.2326E-01  0.4001E+01
  -2.320 -0.1877E-01  0.4001E+01
  -2.310 -0.1507E-01  0.4001E+01
  -2.300 -0.1203E-01  0.4000E+01
  -2.290 -0.9554E-02  0.4000E+01
  -2.280 -0.7546E-02  0.4000E+01
  -2.270 -0.5928E-02  0.4000E+01
  -2.260 -0.4632E-02  0.4000E+01
  -2.250 -0.3600E-02  0.4000E+01
  -2.240 -0.2784E-02  0.4000E+01
  -2.230 -0.2141E-02  0.4000E+01
  -2.220 -0.1638E-02  0.4000E+01
  -2.210 -0.1246E-02  0.4000E+01
  -2.200 -0.9436E-03  0.4000E+01
  -2.190 -0.7107E-03  0.4000E+01
  -2.180 -0.5324E-03  0.4000E+01
  -2.170 -0.3968E-03  0.4000E+01
  -2.160 -0.2942E-03  0.4000E+01
  -2.150 -0.2170E-03  0.4000E+01
  -2.140 -0.1593E-03  0.4000E+01
  -2.130 -0.1163E-03  0.4000E+01
  -2.120 -0.8443E-04  0.4000E+01
  -2.110 -0.6100E-04  0.4000E+01
  -2.100 -0.4385E-04  0.4000E+01
  -2.090 -0.3136E-04  0.4000E+01
  -2.080 -0.2231E-04  0.4000E+01
  -2.070 -0.1579E-04  0.4000E+01
  -2.060 -0.1112E-04  0.4000E+01
  -2.050 -0.7792E-05  0.4000E+01
  -2.040 -0.5431E-05  0.4000E+01
  -2.030 -0.3767E-05  0.4000E+01
  -2.020 -0.2599E-05  0.4000E+01
  -2.010 -0.1784E-05  0.4000E+01
  -2.000 -0.1218E-05  0.4000E+01
  -1.990 -0.8280E-06  0.4000E+01
  -1.980 -0.5598E-06  0.4000E+01
  -1.970 -0.3765E-06  0.4000E+01
  -1.960 -0.2520E-06  0.4000E+01
  -1.950 -0.1678E-06  0.4000E+01
  -1.940 -0.1111E-06  0.4000E+01
  -1.930 -0.7326E-07  0.4000E+01
  -1.920 -0.4804E-07  0.4000E+01
  -1.910 -0.3134E-07  0.4000E+01
  -1.900 -0.2035E-07  0.4000E+01
  -1.890 -0.1314E-07  0.4000E+01
  -1.880 -0.8446E-08  0.4000E+01
  -1.870 -0.5400E-08  0.4000E+01
  -1.860 -0.3436E-08  0.4000E+01
  -1.850 -0.2175E-08  0.4000E+01
  -1.840 -0.1370E-08  0.4000E+01
  -1.830 -0.8582E-09  0.4000E+01
  -1.820 -0.5350E-09  0.4000E+01
  -1.810 -0.3319E-09  0.4000E+01
  -1.800 -0.2048E-09  0.4000E+01
  -1.790 -0.1258E-09  0.4000E+01
  -1.780 -0.7686E-10  0.4000E+01
  -1.770 -0.4673E-10  0.4000E+01
  -1.760 -0.2826E-10  0.4000E+01
  -1.750 -0.1701E-10  0.4000E+01
  -1.740 -0.1019E-10  0.4000E+01
  -1.730 -0.6069E-11  0.4000E+01
  -1.720 -0.3598E-11  0.4000E+01
  -1.710 -0.2122E-11  0.4000E+01
  -1.700 -0.1245E-11  0.4000E+01
  -1.690 -0.7273E-12  0.4000E+01
  -1.680 -0.4226E-12  0.4000E+01
  -1.670 -0.2443E-12  0.4000E+01
  -1.660 -0.1405E-12  0.4000E+01
  -1.650 -0.8042E-13  0.4000E+01
  -1.640 -0.4579E-13  0.4000E+01
  -1.630 -0.2595E-13  0.4000E+01
  -1.620 -0.1463E-13  0.4000E+01
  -1.610 -0.8205E-14  0.4000E+01
  -1.600 -0.4579E-14  0.4000E+01
  -1.590 -0.2543E-14  0.4000E+01
  -1.580 -0.1405E-14  0.4000E+01
  -1.570 -0.7725E-15  0.4000E+01
  -1.560 -0.4226E-15  0.4000E+01
  -1.550 -0.2300E-15  0.4000E+01
  -1.540 -0.1246E-15  0.4000E+01
  -1.530 -0.6712E-16  0.4000E+01
  -1.520 -0.3599E-16  0.4000E+01
  -1.510 -0.1920E-16  0.4000E+01
  -1.500 -0.1019E-16  0.4000E+01
  -1.490 -0.5382E-17  0.4000E+01
  -1.480 -0.2828E-17  0.4000E+01
  -1.470 -0.1479E-17  0.4000E+01
  -1.460 -0.7694E-18  0.4000E+01
  -1.450 -0.3983E-18  0.4000E+01
  -1.440 -0.2052E-18  0.4000E+01
  -1.430 -0.1051E-18  0.4000E+01
  -1.420 -0.5362E-19  0.4000E+01
  -1.410 -0.2721E-19  0.4000E+01
  -1.400 -0.1373E-19  0.4000E+01
  -1.390 -0.6899E-20  0.4000E+01
  -1.380 -0.3448E-20  0.4000E+01
  -1.370 -0.1715E-20  0.4000E+01
  -1.360 -0.8486E-21  0.4000E+01
  -1.350 -0.4178E-21  0.4000E+01
  -1.340 -0.2047E-21  0.4000E+01
  -1.330 -0.9978E-22  0.4000E+01
  -1.320 -0.4840E-22  0.4000E+01
  -1.310 -0.2336E-22  0.4000E+01
  -1.300 -0.1122E-22  0.4000E+01
  -1.290 -0.5359E-23  0.4000E+01
  -1.280 -0.2548E-23  0.4000E+01
  -1.270 -0.1205E-23  0.4000E+01
  -1.260 -0.5672E-24  0.4000E+01
  -1.250 -0.2656E-24  0.4000E+01
  -1.240 -0.1238E-24  0.4000E+01
  -1.230 -0.5739E-25  0.4000E+01
  -1.220 -0.2648E-25  0.4000E+01
  -1.210 -0.1215E-25  0.4000E+01
  -1.200 -0.5551E-26  0.4000E+01
  -1.190 -0.2523E-26  0.4000E+01
  -1.180 -0.1141E-26  0.4000E+01
  -1.170 -0.5132E-27  0.4000E+01
  -1.160 -0.2298E-27  0.4000E+01
  -1.150 -0.1024E-27  0.4000E+01
  -1.140 -0.4537E-28  0.4000E+01
  -1.130 -0.2001E-28  0.4000E+01
  -1.120 -0.8780E-29  0.4000E+01
  -1.110 -0.3833E-29  0.4000E+01
  -1.100 -0.1665E-29  0.4000E+01
  -1.090 -0.7199E-30  0.4000E+01
  -1.080 -0.3097E-30  0.4000E+01
  -1.070 -0.1325E-30  0.4000E+01
  -1.060 -0.5643E-31  0.4000E+01
  -1.050 -0.2391E-31  0.4000E+01
  -1.040 -0.1008E-31  0.4000E+01
  -1.030 -0.4229E-32  0.4000E+01
  -1.020 -0.1765E-32  0.4000E+01
  -1.010 -0.7331E-33  0.4000E+01
  -1.000 -0.3030E-33  0.4000E+01
  -0.990 -0.1246E-33  0.4000E+01
  -0.980 -0.5097E-34  0.4000E+01
  -0.970 -0.2075E-34  0.4000E+01
  -0.960 -0.8405E-35  0.4000E+01
  -0.950 -0.3387E-35  0.4000E+01
  -0.940 -0.1358E-35  0.4000E+01
  -0.930 -0.5421E-36  0.4000E+01
  -0.920 -0.2152E-36  0.4000E+01
  -0.910 -0.8503E-37  0.4000E+01
  -0.900 -0.3342E-37  0.4000E+01
  -0.890 -0.1307E-37  0.4000E+01
  -0.880 -0.5088E-38  0.4000E+01
  -0.870 -0.1970E-38  0.4000E+01
  -0.860 -0.7591E-39  0.4000E+01
  -0.850 -0.2910E-39  0.4000E+01
  -0.840 -0.1110E-39  0.4000E+01
  -0.830 -0.4214E-40  0.4000E+01
  -0.820 -0.1591E-40  0.4000E+01
  -0.810 -0.5981E-41  0.4000E+01
  -0.800 -0.2236E-41  0.4000E+01
  -0.790 -0.8320E-42  0.4000E+01
  -0.780 -0.3080E-42  0.4000E+01
  -0.770 -0.1135E-42  0.4000E+01
  -0.760 -0.4158E-43  0.4000E+01
  -0.750 -0.1516E-43  0.4000E+01
  -0.740 -0.5503E-44  0.4000E+01
  -0.730 -0.1987E-44  0.4000E+01
  -0.720 -0.7138E-45  0.4000E+01
  -0.710 -0.2551E-45  0.4000E+01
  -0.700 -0.9075E-46  0.4000E+01
  -0.690 -0.3212E-46  0.4000E+01
  -0.680 -0.1131E-46  0.4000E+01
  -0.670 -0.3963E-47  0.4000E+01
  -0.660 -0.1382E-47  0.4000E+01
  -0.650 -0.4793E-48  0.4000E+01
  -0.640 -0.1654E-48  0.4000E+01
  -0.630 -0.5682E-49  0.4000E+01
  -0.620 -0.1942E-49  0.4000E+01
  -0.610 -0.6603E-50  0.4000E+01
  -0.600 -0.2234E-50  0.4000E+01
  -0.590 -0.7520E-51  0.4000E+01
  -0.580 -0.2519E-51  0.4000E+01
  -0.570 -0.8396E-52  0.4000E+01
  -0.560 -0.2785E-52  0.4000E+01
  -0.550 -0.9189E-53  0.4000E+01
  -0.540 -0.3017E-53  0.4000E+01
  -0.530 -0.9857E-54  0.4000E+01
  -0.520 -0.3204E-54  0.4000E+01
  -0.510 -0.1036E-54  0.4000E+01
  -0.500 -0.3336E-55  0.4000E+01
  -0.490 -0.1068E-55  0.4000E+01
  -0.480 -0.3404E-56  0.4000E+01
  -0.470 -0.1079E-56  0.4000E+01
  -0.460 -0.3404E-57  0.4000E+01
  -0.450 -0.1069E-57  0.4000E+01
  -0.440 -0.3338E-58  0.4000E+01
  -0.430 -0.1037E-58  0.4000E+01
  -0.420 -0.3208E-59  0.4000E+01
  -0.410 -0.9869E-60  0.4000E+01
  -0.400 -0.3021E-60  0.4000E+01
  -0.390 -0.9204E-61  0.4000E+01
  -0.380 -0.2790E-61  0.4000E+01
  -0.370 -0.8414E-62  0.4000E+01
  -0.360 -0.2525E-62  0.4000E+01
  -0.350 -0.7539E-63  0.4000E+01
  -0.340 -0.2240E-63  0.4000E+01
  -0.330 -0.6622E-64  0.4000E+01
  -0.320 -0.1948E-64  0.4000E+01
  -0.310 -0.5701E-65  0.4000E+01
  -0.300 -0.1660E-65  0.4000E+01
  -0.290 -0.4811E-66  0.4000E+01
  -0.280 -0.1387E-66  0.4000E+01
  -0.270 -0.3980E-67  0.4000E+01
  -0.260 -0.1136E-67  0.4000E+01
  -0.250 -0.3227E-68  0.4000E+01
  -0.240 -0.9120E-69  0.4000E+01
  -0.230 -0.2565E-69  0.4000E+01
  -0.220 -0.7176E-70  0.4000E+01
  -0.210 -0.1998E-70  0.4000E+01
  -0.200 -0.5535E-71  0.4000E+01
  -0.190 -0.1526E-71  0.4000E+01
  -0.180 -0.4184E-72  0.4000E+01
  -0.170 -0.1142E-72  0.4000E+01
  -0.160 -0.3101E-73  0.4000E+01
  -0.150 -0.8378E-74  0.4000E+01
  -0.140 -0.2253E-74  0.4000E+01
  -0.130 -0.6026E-75  0.4000E+01
  -0.120 -0.1604E-75  0.4000E+01
  -0.110 -0.4248E-76  0.4000E+01
  -0.100 -0.1119E-76  0.4000E+01
  -0.090 -0.2935E-77  0.4000E+01
  -0.080 -0.7658E-78  0.4000E+01
  -0.070 -0.1988E-78  0.4000E+01
  -0.060 -0.5138E-79  0.4000E+01
  -0.050 -0.1323E-79  0.4000E+01
  -0.040 -0.3407E-80  0.4000E+01
  -0.030 -0.8911E-81  0.4000E+01
  -0.020 -0.2496E-81  0.4000E+01
  -0.010 -0.8685E-82  0.4000E+01
   0.000 -0.4523E-82  0.4000E+01
   0.010 -0.3258E-82  0.4000E+01
   0.020 -0.2063E-82  0.4000E+01
   0.030  0.1706E-82  0.4000E+01
   0.040  0.1627E-81  0.4000E+01
   0.050  0.7309E-81  0.4000E+01
   0.060  0.2938E-80  0.4000E+01
   0.070  0.1147E-79  0.4000E+01
   0.080  0.4430E-79  0.4000E+01
   0.090  0.1699E-78  0.4000E+01
   0.100  0.6484E-78  0.4000E+01
   0.110  0.2462E-77  0.4000E+01
   0.120  0.9298E-77  0.4000E+01
   0.130  0.3494E-76  0.4000E+01
   0.140  0.1307E-75  0.4000E+01
   0.150  0.4862E-75  0.4000E+01
   0.160  0.1800E-74  0.4000E+01
   0.170  0.6632E-74  0.4000E+01
   0.180  0.2431E-73  0.4000E+01
   0.190  0.8867E-73  0.4000E+01
   0.200  0.3218E-72  0.4000E+01
   0.210  0.1162E-71  0.4000E+01
   0.220  0.4176E-71  0.4000E+01
   0.230  0.1493E-70  0.4000E+01
   0.240  0.5311E-70  0.4000E+01
   0.250  0.1880E-69  0.4000E+01
   0.260  0.6622E-69  0.4000E+01
   0.270  0.2321E-68  0.4000E+01
   0.280  0.8092E-68  0.4000E+01
   0.290  0.2808E-67  0.4000E+01
   0.300  0.9694E-67  0.4000E+01
   0.310  0.3330E-66  0.4000E+01
   0.320  0.1138E-65  0.4000E+01
   0.330  0.3872E-65  0.4000E+01
   0.340  0.1310E-64  0.4000E+01
   0.350  0.4412E-64  0.4000E+01
   0.360  0.1478E-63  0.4000E+01
   0.370  0.4929E-63  0.4000E+01
   0.380  0.1635E-62  0.4000E+01
   0.390  0.5397E-62  0.4000E+01
   0.400  0.1773E-61  0.4000E+01
   0.410  0.5793E-61  0.4000E+01
   0.420  0.1884E-60  0.4000E+01
   0.430  0.6095E-60  0.4000E+01
   0.440  0.1962E-59  0.4000E+01
   0.450  0.6287E-59  0.4000E+01
   0.460  0.2004E-58  0.4000E+01
   0.470  0.6356E-58  0.4000E+01
   0.480  0.2006E-57  0.4000E+01
   0.490  0.6298E-57  0.4000E+01
   0.500  0.1968E-56  0.4000E+01
   0.510  0.6118E-56  0.4000E+01
   0.520  0.1893E-55  0.4000E+01
   0.530  0.5826E-55  0.4000E+01
   0.540  0.1784E-54  0.4000E+01
   0.550  0.5438E-54  0.4000E+01
   0.560  0.1649E-53  0.4000E+01
   0.570  0.4975E-53  0.4000E+01
   0.580  0.1494E-52  0.4000E+01
   0.590  0.4462E-52  0.4000E+01
   0.600  0.1326E-51  0.4000E+01
   0.610  0.3923E-51  0.4000E+01
   0.620  0.1155E-50  0.4000E+01
   0.630  0.3381E-50  0.4000E+01
   0.640  0.9851E-50  0.4000E+01
   0.650  0.2856E-49  0.4000E+01
   0.660  0.8239E-49  0.4000E+01
   0.670  0.2365E-48  0.4000E+01
   0.680  0.6755E-48  0.4000E+01
   0.690  0.1920E-47  0.4000E+01
   0.700  0.5429E-47  0.4000E+01
   0.710  0.1527E-46  0.4000E+01
   0.720  0.4277E-46  0.4000E+01
   0.730  0.1191E-45  0.4000E+01
   0.740  0.3302E-45  0.4000E+01
   0.750  0.9109E-45  0.4000E+01
   0.760  0.2500E-44  0.4000E+01
   0.770  0.6827E-44  0.4000E+01
   0.780  0.1855E-43  0.4000E+01
   0.790  0.5015E-43  0.4000E+01
   0.800  0.1349E-42  0.4000E+01
   0.810  0.3612E-42  0.4000E+01
   0.820  0.9620E-42  0.4000E+01
   0.830  0.2550E-41  0.4000E+01
   0.840  0.6724E-41  0.4000E+01
   0.850  0.1764E-40  0.4000E+01
   0.860  0.4607E-40  0.4000E+01
   0.870  0.1197E-39  0.4000E+01
   0.880  0.3094E-39  0.4000E+01
   0.890  0.7958E-39  0.4000E+01
   0.900  0.2037E-38  0.4000E+01
   0.910  0.5187E-38  0.4000E+01
   0.920  0.1314E-37  0.4000E+01
   0.930  0.3314E-37  0.4000E+01
   0.940  0.8315E-37  0.4000E+01
   0.950  0.2076E-36  0.4000E+01
   0.960  0.5156E-36  0.4000E+01
   0.970  0.1274E-35  0.4000E+01
   0.980  0.3134E-35  0.4000E+01
   0.990  0.7670E-35  0.4000E+01
   1.000  0.1868E-34  0.4000E+01
   1.010  0.4525E-34  0.4000E+01
   1.020  0.1091E-33  0.4000E+01
   1.030  0.2617E-33  0.4000E+01
   1.040  0.6247E-33  0.4000E+01
   1.050  0.1484E-32  0.4000E+01
   1.060  0.3506E-32  0.4000E+01
   1.070  0.8245E-32  0.4000E+01
   1.080  0.1929E-31  0.4000E+01
   1.090  0.4492E-31  0.4000E+01
   1.100  0.1041E-30  0.4000E+01
   1.110  0.2399E-30  0.4000E+01
   1.120  0.5502E-30  0.4000E+01
   1.130  0.1256E-29  0.4000E+01
   1.140  0.2852E-29  0.4000E+01
   1.150  0.6444E-29  0.4000E+01
   1.160  0.1449E-28  0.4000E+01
   1.170  0.3242E-28  0.4000E+01
   1.180  0.7217E-28  0.4000E+01
   1.190  0.1599E-27  0.4000E+01
   1.200  0.3524E-27  0.4000E+01
   1.210  0.7728E-27  0.4000E+01
   1.220  0.1686E-26  0.4000E+01
   1.230  0.3662E-26  0.4000E+01
   1.240  0.7913E-26  0.4000E+01
   1.250  0.1701E-25  0.4000E+01
   1.260  0.3639E-25  0.4000E+01
   1.270  0.7747E-25  0.4000E+01
   1.280  0.1641E-24  0.4000E+01
   1.290  0.3458E-24  0.4000E+01
   1.300  0.7253E-24  0.4000E+01
   1.310  0.1513E-23  0.4000E+01
   1.320  0.3143E-23  0.4000E+01
   1.330  0.6493E-23  0.4000E+01
   1.340  0.1335E-22  0.4000E+01
   1.350  0.2731E-22  0.4000E+01
   1.360  0.5558E-22  0.4000E+01
   1.370  0.1126E-21  0.4000E+01
   1.380  0.2269E-21  0.4000E+01
   1.390  0.4550E-21  0.4000E+01
   1.400  0.9079E-21  0.4000E+01
   1.410  0.1803E-20  0.4000E+01
   1.420  0.3561E-20  0.4000E+01
   1.430  0.7001E-20  0.4000E+01
   1.440  0.1370E-19  0.4000E+01
   1.450  0.2666E-19  0.4000E+01
   1.460  0.5163E-19  0.4000E+01
   1.470  0.9951E-19  0.4000E+01
   1.480  0.1908E-18  0.4000E+01
   1.490  0.3641E-18  0.4000E+01
   1.500  0.6914E-18  0.4000E+01
   1.510  0.1306E-17  0.4000E+01
   1.520  0.2456E-17  0.4000E+01
   1.530  0.4594E-17  0.4000E+01
   1.540  0.8551E-17  0.4000E+01
   1.550  0.1584E-16  0.4000E+01
   1.560  0.2919E-16  0.4000E+01
   1.570  0.5353E-16  0.4000E+01
   1.580  0.9768E-16  0.4000E+01
   1.590  0.1774E-15  0.4000E+01
   1.600  0.3205E-15  0.4000E+01
   1.610  0.5762E-15  0.4000E+01
   1.620  0.1031E-14  0.4000E+01
   1.630  0.1835E-14  0.4000E+01
   1.640  0.3251E-14  0.4000E+01
   1.650  0.5730E-14  0.4000E+01
   1.660  0.1005E-13  0.4000E+01
   1.670  0.1754E-13  0.4000E+01
   1.680  0.3046E-13  0.4000E+01
   1.690  0.5263E-13  0.4000E+01
   1.700  0.9050E-13  0.4000E+01
   1.710  0.1549E-12  0.4000E+01
   1.720  0.2636E-12  0.4000E+01
   1.730  0.4467E-12  0.4000E+01
   1.740  0.7530E-12  0.4000E+01
   1.750  0.1263E-11  0.4000E+01
   1.760  0.2109E-11  0.4000E+01
   1.770  0.3502E-11  0.4000E+01
   1.780  0.5789E-11  0.4000E+01
   1.790  0.9521E-11  0.4000E+01
   1.800  0.1558E-10  0.4000E+01
   1.810  0.2538E-10  0.4000E+01
   1.820  0.4112E-10  0.4000E+01
   1.830  0.6631E-10  0.4000E+01
   1.840  0.1064E-09  0.4000E+01
   1.850  0.1699E-09  0.4000E+01
   1.860  0.2700E-09  0.4000E+01
   1.870  0.4268E-09  0.4000E+01
   1.880  0.6715E-09  0.4000E+01
   1.890  0.1051E-08  0.4000E+01
   1.900  0.1638E-08  0.4000E+01
   1.910  0.2539E-08  0.4000E+01
   1.920  0.3917E-08  0.4000E+01
   1.930  0.6013E-08  0.4000E+01
   1.940  0.9185E-08  0.4000E+01
   1.950  0.1396E-07  0.4000E+01
   1.960  0.2112E-07  0.4000E+01
   1.970  0.3179E-07  0.4000E+01
   1.980  0.4762E-07  0.4000E+01
   1.990  0.7098E-07  0.4000E+01
   2.000  0.1053E-06  0.4000E+01
   2.010  0.1554E-06  0.4000E+01
   2.020  0.2283E-06  0.4000E+01
   2.030  0.3336E-06  0.4000E+01
   2.040  0.4853E-06  0.4000E+01
   2.050  0.7024E-06  0.4000E+01
   2.060  0.1012E-05  0.4000E+01
   2.070  0.1450E-05  0.4000E+01
   2.080  0.2069E-05  0.4000E+01
   2.090  0.2937E-05  0.4000E+01
   2.100  0.4149E-05  0.4000E+01
   2.110  0.5832E-05  0.4000E+01
   2.120  0.8159E-05  0.4000E+01
   2.130  0.1136E-04  0.4000E+01
   2.140  0.1574E-04  0.4000E+01
   2.150  0.2170E-04  0.4000E+01
   2.160  0.2977E-04  0.4000E+01
   2.170  0.4066E-04  0.4000E+01
   2.180  0.5525E-04  0.4000E+01
   2.190  0.7473E-04  0.4000E+01
   2.200  0.1006E-03  0.4000E+01
   2.210  0.1347E-03  0.4000E+01
   2.220  0.1796E-03  0.4000E+01
   2.230  0.2383E-03  0.4000E+01
   2.240  0.3146E-03  0.4000E+01
   2.250  0.4134E-03  0.4000E+01
   2.260  0.5406E-03  0.4000E+01
   2.270  0.7037E-03  0.4000E+01
   2.280  0.9116E-03  0.4000E+01
   2.290  0.1175E-02  0.4000E+01
   2.300  0.1508E-02  0.4000E+01
   2.310  0.1926E-02  0.4000E+01
   2.320  0.2449E-02  0.4000E+01
   2.330  0.3098E-02  0.4000E+01
   2.340  0.3901E-02  0.4000E+01
   2.350  0.4890E-02  0.4000E+01
   2.360  0.6100E-02  0.4000E+01
   2.370  0.7575E-02  0.4000E+01
   2.380  0.9364E-02  0.4000E+01
   2.390  0.1152E-01  0.4001E+01
   2.400  0.1411E-01  0.4001E+01
   2.410  0.1720E-01  0.4001E+01
   2.420  0.2087E-01  0.4001E+01
   2.430  0.2522E-01  0.4001E+01
   2.440  0.3032E-01  0.4002E+01
   2.450  0.3630E-01  0.4002E+01
   2.460  0.4326E-01  0.4002E+01
   2.470  0.5133E-01  0.4003E+01
   2.480  0.6063E-01  0.4004E+01
   2.490  0.7130E-01  0.4004E+01
   2.500  0.8349E-01  0.4005E+01
   2.510  0.9732E-01  0.4006E+01
   2.520  0.1130E+00  0.4007E+01
   2.530  0.1306E+00  0.4009E+01
   2.540  0.1502E+00  0.4010E+01
   2.550  0.1722E+00  0.4012E+01
   2.560  0.1965E+00  0.4014E+01
   2.570  0.2233E+00  0.4016E+01
   2.580  0.2527E+00  0.4018E+01
   2.590  0.2848E+00  0.4021E+01
   2.600  0.3197E+00  0.4025E+01
   2.610  0.3575E+00  0.4028E+01
   2.620  0.3981E+00  0.4032E+01
   2.630  0.4417E+00  0.4036E+01
   2.640  0.4881E+00  0.4041E+01
   2.650  0.5374E+00  0.4047E+01
   2.660  0.5894E+00  0.4053E+01
   2.670  0.6441E+00  0.4059E+01
   2.680  0.7014E+00  0.4066E+01
   2.690  0.7611E+00  0.4074E+01
   2.700  0.8230E+00  0.4082E+01
   2.710  0.8869E+00  0.4091E+01
   2.720  0.9526E+00  0.4100E+01
   2.730  0.1020E+01  0.4111E+01
   2.740  0.1089E+01  0.4121E+01
   2.750  0.1158E+01  0.4133E+01
   2.760  0.1229E+01  0.4145E+01
   2.770  0.1300E+01  0.4158E+01
   2.780  0.1371E+01  0.4172E+01
   2.790  0.1442E+01  0.4186E+01
   2.800  0.1513E+01  0.4202E+01
   2.810  0.1584E+01  0.4217E+01
   2.820  0.1654E+01  0.4234E+01
   2.830  0.1723E+01  0.4251E+01
   2.840  0.1792E+01  0.4269E+01
   2.850  0.1859E+01  0.4288E+01
   2.860  0.1925E+01  0.4307E+01
   2.870  0.1990E+01  0.4327E+01
   2.880  0.2054E+01  0.4347E+01
   2.890  0.2117E+01  0.4369E+01
   2.900  0.2178E+01  0.4390E+01
   2.910  0.2239E+01  0.4413E+01
   2.920  0.2299E+01  0.4436E+01
   2.930  0.2358E+01  0.4459E+01
   2.940  0.2417E+01  0.4483E+01
   2.950  0.2475E+01  0.4508E+01
   2.960  0.2534E+01  0.4534E+01
   2.970  0.2592E+01  0.4559E+01
   2.980  0.2651E+01  0.4586E+01
   2.990  0.2710E+01  0.4613E+01
   3.000  0.2770E+01  0.4641E+01
   3.010  0.2831E+01  0.4669E+01
   3.020  0.2893E+01  0.4698E+01
   3.030  0.2957E+01  0.4728E+01
   3.040  0.3022E+01  0.4758E+01
   3.050  0.3088E+01  0.4789E+01
   3.060  0.3156E+01  0.4820E+01
   3.070  0.3225E+01  0.4852E+01
   3.080  0.3295E+01  0.4885E+01
   3.090  0.3367E+01  0.4919E+01
   3.100  0.3439E+01  0.4953E+01
   3.110  0.3513E+01  0.4989E+01
   3.120  0.3586E+01  0.5024E+01
   3.130  0.3660E+01  0.5061E+01
   3.140  0.3733E+01  0.5098E+01
   3.150  0.3805E+01  0.5136E+01
   3.160  0.3875E+01  0.5175E+01
   3.170  0.3943E+01  0.5215E+01
   3.180  0.4009E+01  0.5255E+01
   3.190  0.4071E+01  0.5295E+01
   3.200  0.4128E+01  0.5337E+01
   3.210  0.4181E+01  0.5379E+01
   3.220  0.4229E+01  0.5421E+01
   3.230  0.4270E+01  0.5464E+01
   3.240  0.4305E+01  0.5507E+01
   3.250  0.4333E+01  0.5550E+01
   3.260  0.4353E+01  0.5593E+01
   3.270  0.4366E+01  0.5637E+01
   3.280  0.4370E+01  0.5681E+01
   3.290  0.4366E+01  0.5724E+01
   3.300  0.4353E+01  0.5768E+01
   3.310  0.4332E+01  0.5811E+01
   3.320  0.4303E+01  0.5854E+01
   3.330  0.4265E+01  0.5897E+01
   3.340  0.4220E+01  0.5939E+01
   3.350  0.4167E+01  0.5981E+01
   3.360  0.4108E+01  0.6022E+01
   3.370  0.4042E+01  0.6062E+01
   3.380  0.3970E+01  0.6102E+01
   3.390  0.3894E+01  0.6141E+01
   3.400  0.3814E+01  0.6179E+01
   3.410  0.3730E+01  0.6216E+01
   3.420  0.3644E+01  0.6253E+01
   3.430  0.3556E+01  0.6288E+01
   3.440  0.3468E+01  0.6323E+01
   3.450  0.3379E+01  0.6357E+01
   3.460  0.3292E+01  0.6390E+01
   3.470  0.3206E+01  0.6422E+01
   3.480  0.3122E+01  0.6453E+01
   3.490  0.3042E+01  0.6484E+01
   3.500  0.2965E+01  0.6513E+01
   3.510  0.2893E+01  0.6542E+01
   3.520  0.2825E+01  0.6570E+01
   3.530  0.2762E+01  0.6598E+01
   3.540  0.2704E+01  0.6625E+01
   3.550  0.2652E+01  0.6652E+01
   3.560  0.2606E+01  0.6678E+01
   3.570  0.2565E+01  0.6703E+01
   3.580  0.2529E+01  0.6729E+01
   3.590  0.2499E+01  0.6754E+01
   3.600  0.2475E+01  0.6778E+01
   3.610  0.2455E+01  0.6803E+01
   3.620  0.2440E+01  0.6827E+01
   3.630  0.2429E+01  0.6852E+01
   3.640  0.2422E+01  0.6876E+01
   3.650  0.2419E+01  0.6900E+01
   3.660  0.2418E+01  0.6924E+01
   3.670  0.2419E+01  0.6948E+01
   3.680  0.2423E+01  0.6973E+01
   3.690  0.2427E+01  0.6997E+01
   3.700  0.2432E+01  0.7021E+01
   3.710  0.2437E+01  0.7046E+01
   3.720  0.2442E+01  0.7070E+01
   3.730  0.2446E+01  0.7094E+01
   3.740  0.2448E+01  0.7119E+01
   3.750  0.2449E+01  0.7143E+01
   3.760  0.2447E+01  0.7168E+01
   3.770  0.2442E+01  0.7192E+01
   3.780  0.2435E+01  0.7217E+01
   3.790  0.2424E+01  0.7241E+01
   3.800  0.2410E+01  0.7265E+01
   3.810  0.2392E+01  0.7289E+01
   3.820  0.2371E+01  0.7313E+01
   3.830  0.2347E+01  0.7336E+01
   3.840  0.2319E+01  0.7359E+01
   3.850  0.2289E+01  0.7382E+01
   3.860  0.2255E+01  0.7405E+01
   3.870  0.2219E+01  0.7427E+01
   3.880  0.2180E+01  0.7449E+01
   3.890  0.2140E+01  0.7470E+01
   3.900  0.2098E+01  0.7491E+01
   3.910  0.2056E+01  0.7512E+01
   3.920  0.2013E+01  0.7532E+01
   3.930  0.1970E+01  0.7551E+01
   3.940  0.1928E+01  0.7571E+01
   3.950  0.1887E+01  0.7590E+01
   3.960  0.1848E+01  0.7608E+01
   3.970  0.1811E+01  0.7626E+01
   3.980  0.1777E+01  0.7644E+01
   3.990  0.1745E+01  0.7661E+01
   4.000  0.1717E+01  0.7679E+01
   4.010  0.1693E+01  0.7695E+01
   4.020  0.1672E+01  0.7712E+01
   4.030  0.1655E+01  0.7729E+01
   4.040  0.1643E+01  0.7745E+01
   4.050  0.1634E+01  0.7762E+01
   4.060  0.1630E+01  0.7778E+01
   4.070  0.1630E+01  0.7794E+01
   4.080  0.1633E+01  0.7810E+01
   4.090  0.1641E+01  0.7827E+01
   4.100  0.1652E+01  0.7843E+01
   4.110  0.1666E+01  0.7860E+01
   4.120  0.1683E+01  0.7877E+01
   4.130  0.1703E+01  0.7894E+01
   4.140  0.1725E+01  0.7911E+01
   4.150  0.1749E+01  0.7929E+01
   4.160  0.1774E+01  0.7946E+01
   4.170  0.1801E+01  0.7964E+01
   4.180  0.1829E+01  0.7983E+01
   4.190  0.1857E+01  0.8001E+01
   4.200  0.1885E+01  0.8020E+01
   4.210  0.1913E+01  0.8039E+01
   4.220  0.1941E+01  0.8059E+01
   4.230  0.1968E+01  0.8078E+01
   4.240  0.1994E+01  0.8098E+01
   4.250  0.2019E+01  0.8118E+01
   4.260  0.2042E+01  0.8139E+01
   4.270  0.2064E+01  0.8159E+01
   4.280  0.2085E+01  0.8180E+01
   4.290  0.2103E+01  0.8201E+01
   4.300  0.2120E+01  0.8223E+01
   4.310  0.2135E+01  0.8244E+01
   4.320  0.2149E+01  0.8265E+01
   4.330  0.2160E+01  0.8287E+01
   4.340  0.2170E+01  0.8309E+01
   4.350  0.2178E+01  0.8330E+01
   4.360  0.2185E+01  0.8352E+01
   4.370  0.2189E+01  0.8374E+01
   4.380  0.2193E+01  0.8396E+01
   4.390  0.2195E+01  0.8418E+01
   4.400  0.2196E+01  0.8440E+01
   4.410  0.2195E+01  0.8462E+01
   4.420  0.2194E+01  0.8484E+01
   4.430  0.2192E+01  0.8506E+01
   4.440  0.2190E+01  0.8528E+01
   4.450  0.2187E+01  0.8550E+01
   4.460  0.2183E+01  0.8571E+01
   4.470  0.2180E+01  0.8593E+01
   4.480  0.2176E+01  0.8615E+01
   4.490  0.2172E+01  0.8637E+01
   4.500  0.2169E+01  0.8658E+01
   4.510  0.2165E+01  0.8680E+01
   4.520  0.2162E+01  0.8702E+01
   4.530  0.2160E+01  0.8723E+01
   4.540  0.2157E+01  0.8745E+01
   4.550  0.2155E+01  0.8766E+01
   4.560  0.2154E+01  0.8788E+01
   4.570  0.2153E+01  0.8810E+01
   4.580  0.2153E+01  0.8831E+01
   4.590  0.2154E+01  0.8853E+01
   4.600  0.2155E+01  0.8874E+01
   4.610  0.2156E+01  0.8896E+01
   4.620  0.2158E+01  0.8917E+01
   4.630  0.2161E+01  0.8939E+01
   4.640  0.2164E+01  0.8961E+01
   4.650  0.2167E+01  0.8982E+01
   4.660  0.2171E+01  0.9004E+01
   4.670  0.2175E+01  0.9026E+01
   4.680  0.2180E+01  0.9047E+01
   4.690  0.2185E+01  0.9069E+01
   4.700  0.2190E+01  0.9091E+01
   4.710  0.2195E+01  0.9113E+01
   4.720  0.2201E+01  0.9135E+01
   4.730  0.2207E+01  0.9157E+01
   4.740  0.2213E+01  0.9179E+01
   4.750  0.2220E+01  0.9202E+01
   4.760  0.2226E+01  0.9224E+01
   4.770  0.2233E+01  0.9246E+01
   4.780  0.2240E+01  0.9269E+01
   4.790  0.2247E+01  0.9291E+01
   4.800  0.2255E+01  0.9314E+01
   4.810  0.2262E+01  0.9336E+01
   4.820  0.2270E+01  0.9359E+01
   4.830  0.2278E+01  0.9382E+01
   4.840  0.2286E+01  0.9405E+01
   4.850  0.2294E+01  0.9427E+01
   4.860  0.2303E+01  0.9451E+01
   4.870  0.2312E+01  0.9474E+01
   4.880  0.2321E+01  0.9497E+01
   4.890  0.2330E+01  0.9520E+01
   4.900  0.2339E+01  0.9544E+01
   4.910  0.2349E+01  0.9567E+01
   4.920  0.2359E+01  0.9591E+01
   4.930  0.2369E+01  0.9614E+01
   4.940  0.2380E+01  0.9638E+01
   4.950  0.2391E+01  0.9662E+01
   4.960  0.2402E+01  0.9686E+01
   4.970  0.2413E+01  0.9710E+01
   4.980  0.2425E+01  0.9734E+01
   4.990  0.2437E+01  0.9759E+01
   5.000  0.2450E+01  0.9783E+01
   5.010  0.2463E+01  0.9808E+01
   5.020  0.2476E+01  0.9833E+01
   5.030  0.2490E+01  0.9858E+01
   5.040  0.2504E+01  0.9883E+01
   5.050  0.2519E+01  0.9908E+01
   5.060  0.2534E+01  0.9933E+01
   5.070  0.2550E+01  0.9959E+01
   5.080  0.2566E+01  0.9984E+01
   5.090  0.2583E+01  0.1001E+02
   5.100  0.2600E+01  0.1004E+02
   5.110  0.2618E+01  0.1006E+02
   5.120  0.2637E+01  0.1009E+02
   5.130  0.2656E+01  0.1012E+02
   5.140  0.2676E+01  0.1014E+02
   5.150  0.2696E+01  0.1017E+02
   5.160  0.2717E+01  0.1020E+02
   5.170  0.2739E+01  0.1022E+02
   5.180  0.2761E+01  0.1025E+02
   5.190  0.2783E+01  0.1028E+02
   5.200  0.2806E+01  0.1031E+02
   5.210  0.2829E+01  0.1034E+02
   5.220  0.2853E+01  0.1036E+02
   5.230  0.2877E+01  0.1039E+02
   5.240  0.2901E+01  0.1042E+02
   5.250  0.2925E+01  0.1045E+02
   5.260  0.2949E+01  0.1048E+02
   5.270  0.2973E+01  0.1051E+02
   5.280  0.2996E+01  0.1054E+02
   5.290  0.3019E+01  0.1057E+02
   5.300  0.3042E+01  0.1060E+02
   5.310  0.3065E+01  0.1063E+02
   5.320  0.3086E+01  0.1066E+02
   5.330  0.3107E+01  0.1069E+02
   5.340  0.3127E+01  0.1072E+02
   5.350  0.3146E+01  0.1076E+02
   5.360  0.3164E+01  0.1079E+02
   5.370  0.3180E+01  0.1082E+02
   5.380  0.3196E+01  0.1085E+02
   5.390  0.3210E+01  0.1088E+02
   5.400  0.3223E+01  0.1092E+02
   5.410  0.3234E+01  0.1095E+02
   5.420  0.3245E+01  0.1098E+02
   5.430  0.3253E+01  0.1101E+02
   5.440  0.3261E+01  0.1105E+02
   5.450  0.3267E+01  0.1108E+02
   5.460  0.3271E+01  0.1111E+02
   5.470  0.3275E+01  0.1114E+02
   5.480  0.3277E+01  0.1118E+02
   5.490  0.3278E+01  0.1121E+02
   5.500  0.3277E+01  0.1124E+02
   5.510  0.3276E+01  0.1127E+02
   5.520  0.3274E+01  0.1131E+02
   5.530  0.3272E+01  0.1134E+02
   5.540  0.3268E+01  0.1137E+02
   5.550  0.3264E+01  0.1141E+02
   5.560  0.3260E+01  0.1144E+02
   5.570  0.3255E+01  0.1147E+02
   5.580  0.3251E+01  0.1150E+02
   5.590  0.3246E+01  0.1154E+02
   5.600  0.3241E+01  0.1157E+02
   5.610  0.3236E+01  0.1160E+02
   5.620  0.3232E+01  0.1163E+02
   5.630  0.3228E+01  0.1167E+02
   5.640  0.3224E+01  0.1170E+02
   5.650  0.3221E+01  0.1173E+02
   5.660  0.3219E+01  0.1176E+02
   5.670  0.3217E+01  0.1179E+02
   5.680  0.3215E+01  0.1183E+02
   5.690  0.3215E+01  0.1186E+02
   5.700  0.3214E+01  0.1189E+02
   5.710  0.3215E+01  0.1192E+02
   5.720  0.3216E+01  0.1195E+02
   5.730  0.3218E+01  0.1199E+02
   5.740  0.3220E+01  0.1202E+02
   5.750  0.3222E+01  0.1205E+02
   5.760  0.3226E+01  0.1208E+02
   5.770  0.3229E+01  0.1212E+02
   5.780  0.3233E+01  0.1215E+02
   5.790  0.3237E+01  0.1218E+02
   5.800  0.3241E+01  0.1221E+02
   5.810  0.3245E+01  0.1225E+02
   5.820  0.3249E+01  0.1228E+02
   5.830  0.3253E+01  0.1231E+02
   5.840  0.3258E+01  0.1234E+02
   5.850  0.3262E+01  0.1238E+02
   5.860  0.3265E+01  0.1241E+02
   5.870  0.3269E+01  0.1244E+02
   5.880  0.3272E+01  0.1247E+02
   5.890  0.3275E+01  0.1251E+02
   5.900  0.3277E+01  0.1254E+02
   5.910  0.3279E+01  0.1257E+02
   5.920  0.3281E+01  0.1260E+02
   5.930  0.3283E+01  0.1264E+02
   5.940  0.3284E+01  0.1267E+02
   5.950  0.3285E+01  0.1270E+02
   5.960  0.3286E+01  0.1274E+02
   5.970  0.3287E+01  0.1277E+02
   5.980  0.3288E+01  0.1280E+02
   5.990  0.3288E+01  0.1283E+02
   6.000  0.3289E+01  0.1287E+02
   6.010  0.3290E+01  0.1290E+02
   6.020  0.3292E+01  0.1293E+02
   6.030  0.3294E+01  0.1297E+02
   6.040  0.3296E+01  0.1300E+02
   6.050  0.3299E+01  0.1303E+02
   6.060  0.3303E+01  0.1307E+02
   6.070  0.3307E+01  0.1310E+02
   6.080  0.3313E+01  0.1313E+02
   6.090  0.3319E+01  0.1316E+02
   6.100  0.3326E+01  0.1320E+02
   6.110  0.3335E+01  0.1323E+02
   6.120  0.3345E+01  0.1326E+02
   6.130  0.3355E+01  0.1330E+02
   6.140  0.3367E+01  0.1333E+02
   6.150  0.3380E+01  0.1337E+02
   6.160  0.3395E+01  0.1340E+02
   6.170  0.3410E+01  0.1343E+02
   6.180  0.3426E+01  0.1347E+02
   6.190  0.3444E+01  0.1350E+02
   6.200  0.3462E+01  0.1354E+02
   6.210  0.3482E+01  0.1357E+02
   6.220  0.3502E+01  0.1361E+02
   6.230  0.3522E+01  0.1364E+02
   6.240  0.3544E+01  0.1368E+02
   6.250  0.3565E+01  0.1371E+02
   6.260  0.3587E+01  0.1375E+02
   6.270  0.3610E+01  0.1379E+02
   6.280  0.3632E+01  0.1382E+02
   6.290  0.3654E+01  0.1386E+02
   6.300  0.3675E+01  0.1389E+02
   6.310  0.3696E+01  0.1393E+02
   6.320  0.3716E+01  0.1397E+02
   6.330  0.3736E+01  0.1401E+02
   6.340  0.3754E+01  0.1404E+02
   6.350  0.3771E+01  0.1408E+02
   6.360  0.3786E+01  0.1412E+02
   6.370  0.3800E+01  0.1416E+02
   6.380  0.3812E+01  0.1420E+02
   6.390  0.3821E+01  0.1423E+02
   6.400  0.3828E+01  0.1427E+02
   6.410  0.3832E+01  0.1431E+02
   6.420  0.3834E+01  0.1435E+02
   6.430  0.3832E+01  0.1439E+02
   6.440  0.3827E+01  0.1443E+02
   6.450  0.3819E+01  0.1446E+02
   6.460  0.3807E+01  0.1450E+02
   6.470  0.3791E+01  0.1454E+02
   6.480  0.3771E+01  0.1458E+02
   6.490  0.3747E+01  0.1461E+02
   6.500  0.3719E+01  0.1465E+02
   6.510  0.3687E+01  0.1469E+02
   6.520  0.3651E+01  0.1473E+02
   6.530  0.3610E+01  0.1476E+02
   6.540  0.3566E+01  0.1480E+02
   6.550  0.3517E+01  0.1483E+02
   6.560  0.3465E+01  0.1487E+02
   6.570  0.3409E+01  0.1490E+02
   6.580  0.3349E+01  0.1493E+02
   6.590  0.3287E+01  0.1497E+02
   6.600  0.3221E+01  0.1500E+02
   6.610  0.3153E+01  0.1503E+02
   6.620  0.3083E+01  0.1506E+02
   6.630  0.3011E+01  0.1509E+02
   6.640  0.2937E+01  0.1512E+02
   6.650  0.2863E+01  0.1515E+02
   6.660  0.2788E+01  0.1518E+02
   6.670  0.2712E+01  0.1521E+02
   6.680  0.2637E+01  0.1523E+02
   6.690  0.2562E+01  0.1526E+02
   6.700  0.2487E+01  0.1528E+02
   6.710  0.2414E+01  0.1531E+02
   6.720  0.2343E+01  0.1533E+02
   6.730  0.2273E+01  0.1535E+02
   6.740  0.2204E+01  0.1537E+02
   6.750  0.2138E+01  0.1540E+02
   6.760  0.2074E+01  0.1542E+02
   6.770  0.2013E+01  0.1544E+02
   6.780  0.1954E+01  0.1546E+02
   6.790  0.1897E+01  0.1548E+02
   6.800  0.1843E+01  0.1549E+02
   6.810  0.1792E+01  0.1551E+02
   6.820  0.1742E+01  0.1553E+02
   6.830  0.1696E+01  0.1555E+02
   6.840  0.1651E+01  0.1556E+02
   6.850  0.1609E+01  0.1558E+02
   6.860  0.1569E+01  0.1559E+02
   6.870  0.1531E+01  0.1561E+02
   6.880  0.1494E+01  0.1562E+02
   6.890  0.1459E+01  0.1564E+02
   6.900  0.1426E+01  0.1565E+02
   6.910  0.1395E+01  0.1567E+02
   6.920  0.1364E+01  0.1568E+02
   6.930  0.1335E+01  0.1569E+02
   6.940  0.1307E+01  0.1571E+02
   6.950  0.1279E+01  0.1572E+02
   6.960  0.1252E+01  0.1573E+02
   6.970  0.1226E+01  0.1574E+02
   6.980  0.1200E+01  0.1576E+02
   6.990  0.1175E+01  0.1577E+02
   7.000  0.1150E+01  0.1578E+02
   7.010  0.1125E+01  0.1579E+02
   7.020  0.1100E+01  0.1580E+02
   7.030  0.1075E+01  0.1581E+02
   7.040  0.1049E+01  0.1582E+02
   7.050  0.1024E+01  0.1583E+02
   7.060  0.9980E+00  0.1584E+02
   7.070  0.9719E+00  0.1585E+02
   7.080  0.9453E+00  0.1586E+02
   7.090  0.9184E+00  0.1587E+02
   7.100  0.8909E+00  0.1588E+02
   7.110  0.8630E+00  0.1589E+02
   7.120  0.8346E+00  0.1590E+02
   7.130  0.8057E+00  0.1591E+02
   7.140  0.7764E+00  0.1591E+02
   7.150  0.7468E+00  0.1592E+02
   7.160  0.7168E+00  0.1593E+02
   7.170  0.6867E+00  0.1594E+02
   7.180  0.6564E+00  0.1594E+02
   7.190  0.6260E+00  0.1595E+02
   7.200  0.5958E+00  0.1595E+02
   7.210  0.5658E+00  0.1596E+02
   7.220  0.5361E+00  0.1597E+02
   7.230  0.5069E+00  0.1597E+02
   7.240  0.4784E+00  0.1597E+02
   7.250  0.4507E+00  0.1598E+02
   7.260  0.4239E+00  0.1598E+02
   7.270  0.3982E+00  0.1599E+02
   7.280  0.3737E+00  0.1599E+02
   7.290  0.3505E+00  0.1599E+02
   7.300  0.3288E+00  0.1600E+02
   7.310  0.3087E+00  0.1600E+02
   7.320  0.2902E+00  0.1600E+02
   7.330  0.2735E+00  0.1601E+02
   7.340  0.2585E+00  0.1601E+02
   7.350  0.2453E+00  0.1601E+02
   7.360  0.2339E+00  0.1601E+02
   7.370  0.2243E+00  0.1602E+02
   7.380  0.2166E+00  0.1602E+02
   7.390  0.2106E+00  0.1602E+02
   7.400  0.2064E+00  0.1602E+02
   7.410  0.2038E+00  0.1602E+02
   7.420  0.2029E+00  0.1603E+02
   7.430  0.2036E+00  0.1603E+02
   7.440  0.2057E+00  0.1603E+02
   7.450  0.2093E+00  0.1603E+02
   7.460  0.2142E+00  0.1604E+02
   7.470  0.2203E+00  0.1604E+02
   7.480  0.2277E+00  0.1604E+02
   7.490  0.2362E+00  0.1604E+02
   7.500  0.2457E+00  0.1604E+02
   7.510  0.2563E+00  0.1605E+02
   7.520  0.2678E+00  0.1605E+02
   7.530  0.2803E+00  0.1605E+02
   7.540  0.2936E+00  0.1606E+02
   7.550  0.3078E+00  0.1606E+02
   7.560  0.3228E+00  0.1606E+02
   7.570  0.3385E+00  0.1607E+02
   7.580  0.3551E+00  0.1607E+02
   7.590  0.3724E+00  0.1607E+02
   7.600  0.3904E+00  0.1608E+02
   7.610  0.4091E+00  0.1608E+02
   7.620  0.4285E+00  0.1608E+02
   7.630  0.4486E+00  0.1609E+02
   7.640  0.4692E+00  0.1609E+02
   7.650  0.4905E+00  0.1610E+02
   7.660  0.5122E+00  0.1610E+02
   7.670  0.5345E+00  0.1611E+02
   7.680  0.5571E+00  0.1611E+02
   7.690  0.5801E+00  0.1612E+02
   7.700  0.6035E+00  0.1613E+02
   7.710  0.6270E+00  0.1613E+02
   7.720  0.6507E+00  0.1614E+02
   7.730  0.6745E+00  0.1615E+02
   7.740  0.6982E+00  0.1615E+02
   7.750  0.7218E+00  0.1616E+02
   7.760  0.7453E+00  0.1617E+02
   7.770  0.7685E+00  0.1618E+02
   7.780  0.7914E+00  0.1618E+02
   7.790  0.8139E+00  0.1619E+02
   7.800  0.8359E+00  0.1620E+02
   7.810  0.8574E+00  0.1621E+02
   7.820  0.8784E+00  0.1622E+02
   7.830  0.8987E+00  0.1623E+02
   7.840  0.9183E+00  0.1624E+02
   7.850  0.9373E+00  0.1624E+02
   7.860  0.9556E+00  0.1625E+02
   7.870  0.9732E+00  0.1626E+02
   7.880  0.9901E+00  0.1627E+02
   7.890  0.1006E+01  0.1628E+02
   7.900  0.1022E+01  0.1629E+02
   7.910  0.1037E+01  0.1630E+02
   7.920  0.1052E+01  0.1632E+02
   7.930  0.1066E+01  0.1633E+02
   7.940  0.1079E+01  0.1634E+02
   7.950  0.1092E+01  0.1635E+02
   7.960  0.1105E+01  0.1636E+02
   7.970  0.1118E+01  0.1637E+02
   7.980  0.1130E+01  0.1638E+02
   7.990  0.1143E+01  0.1639E+02
   8.000  0.1155E+01  0.1640E+02
   8.010  0.1167E+01  0.1642E+02
   8.020  0.1180E+01  0.1643E+02
   8.030  0.1192E+01  0.1644E+02
   8.040  0.1205E+01  0.1645E+02
   8.050  0.1218E+01  0.1646E+02
   8.060  0.1231E+01  0.1648E+02
   8.070  0.1244E+01  0.1649E+02
   8.080  0.1258E+01  0.1650E+02
   8.090  0.1272E+01  0.1651E+02
   8.100  0.1286E+01  0.1653E+02
   8.110  0.1300E+01  0.1654E+02
   8.120  0.1315E+01  0.1655E+02
   8.130  0.1330E+01  0.1657E+02
   8.140  0.1346E+01  0.1658E+02
   8.150  0.1361E+01  0.1659E+02
   8.160  0.1377E+01  0.1661E+02
   8.170  0.1393E+01  0.1662E+02
   8.180  0.1409E+01  0.1663E+02
   8.190  0.1425E+01  0.1665E+02
   8.200  0.1441E+01  0.1666E+02
   8.210  0.1457E+01  0.1668E+02
   8.220  0.1473E+01  0.1669E+02
   8.230  0.1488E+01  0.1671E+02
   8.240  0.1504E+01  0.1672E+02
   8.250  0.1519E+01  0.1674E+02
   8.260  0.1535E+01  0.1675E+02
   8.270  0.1549E+01  0.1677E+02
   8.280  0.1564E+01  0.1678E+02
   8.290  0.1579E+01  0.1680E+02
   8.300  0.1593E+01  0.1682E+02
   8.310  0.1607E+01  0.1683E+02
   8.320  0.1621E+01  0.1685E+02
   8.330  0.1635E+01  0.1686E+02
   8.340  0.1648E+01  0.1688E+02
   8.350  0.1662E+01  0.1690E+02
   8.360  0.1676E+01  0.1691E+02
   8.370  0.1690E+01  0.1693E+02
   8.380  0.1704E+01  0.1695E+02
   8.390  0.1719E+01  0.1697E+02
   8.400  0.1734E+01  0.1698E+02
   8.410  0.1750E+01  0.1700E+02
   8.420  0.1766E+01  0.1702E+02
   8.430  0.1783E+01  0.1704E+02
   8.440  0.1800E+01  0.1705E+02
   8.450  0.1818E+01  0.1707E+02
   8.460  0.1837E+01  0.1709E+02
   8.470  0.1857E+01  0.1711E+02
   8.480  0.1878E+01  0.1713E+02
   8.490  0.1900E+01  0.1715E+02
   8.500  0.1922E+01  0.1717E+02
   8.510  0.1946E+01  0.1719E+02
   8.520  0.1970E+01  0.1721E+02
   8.530  0.1995E+01  0.1723E+02
   8.540  0.2021E+01  0.1725E+02
   8.550  0.2047E+01  0.1727E+02
   8.560  0.2074E+01  0.1729E+02
   8.570  0.2102E+01  0.1731E+02
   8.580  0.2130E+01  0.1733E+02
   8.590  0.2158E+01  0.1735E+02
   8.600  0.2187E+01  0.1737E+02
   8.610  0.2216E+01  0.1739E+02
   8.620  0.2246E+01  0.1742E+02
   8.630  0.2275E+01  0.1744E+02
   8.640  0.2305E+01  0.1746E+02
   8.650  0.2335E+01  0.1749E+02
   8.660  0.2364E+01  0.1751E+02
   8.670  0.2394E+01  0.1753E+02
   8.680  0.2424E+01  0.1756E+02
   8.690  0.2453E+01  0.1758E+02
   8.700  0.2482E+01  0.1761E+02
   8.710  0.2511E+01  0.1763E+02
   8.720  0.2540E+01  0.1766E+02
   8.730  0.2568E+01  0.1768E+02
   8.740  0.2596E+01  0.1771E+02
   8.750  0.2623E+01  0.1774E+02
   8.760  0.2649E+01  0.1776E+02
   8.770  0.2675E+01  0.1779E+02
   8.780  0.2700E+01  0.1782E+02
   8.790  0.2723E+01  0.1784E+02
   8.800  0.2746E+01  0.1787E+02
   8.810  0.2767E+01  0.1790E+02
   8.820  0.2787E+01  0.1793E+02
   8.830  0.2805E+01  0.1795E+02
   8.840  0.2821E+01  0.1798E+02
   8.850  0.2836E+01  0.1801E+02
   8.860  0.2848E+01  0.1804E+02
   8.870  0.2859E+01  0.1807E+02
   8.880  0.2867E+01  0.1810E+02
   8.890  0.2872E+01  0.1813E+02
   8.900  0.2876E+01  0.1815E+02
   8.910  0.2877E+01  0.1818E+02
   8.920  0.2875E+01  0.1821E+02
   8.930  0.2871E+01  0.1824E+02
   8.940  0.2864E+01  0.1827E+02
   8.950  0.2856E+01  0.1830E+02
   8.960  0.2845E+01  0.1833E+02
   8.970  0.2831E+01  0.1835E+02
   8.980  0.2816E+01  0.1838E+02
   8.990  0.2799E+01  0.1841E+02
   9.000  0.2780E+01  0.1844E+02
   9.010  0.2760E+01  0.1847E+02
   9.020  0.2739E+01  0.1849E+02
   9.030  0.2716E+01  0.1852E+02
   9.040  0.2693E+01  0.1855E+02
   9.050  0.2669E+01  0.1857E+02
   9.060  0.2645E+01  0.1860E+02
   9.070  0.2621E+01  0.1863E+02
   9.080  0.2597E+01  0.1865E+02
   9.090  0.2573E+01  0.1868E+02
   9.100  0.2550E+01  0.1870E+02
   9.110  0.2528E+01  0.1873E+02
   9.120  0.2506E+01  0.1875E+02
   9.130  0.2485E+01  0.1878E+02
   9.140  0.2465E+01  0.1880E+02
   9.150  0.2447E+01  0.1883E+02
   9.160  0.2429E+01  0.1885E+02
   9.170  0.2412E+01  0.1888E+02
   9.180  0.2397E+01  0.1890E+02
   9.190  0.2383E+01  0.1892E+02
   9.200  0.2370E+01  0.1895E+02
   9.210  0.2358E+01  0.1897E+02
   9.220  0.2347E+01  0.1900E+02
   9.230  0.2337E+01  0.1902E+02
   9.240  0.2328E+01  0.1904E+02
   9.250  0.2321E+01  0.1907E+02
   9.260  0.2314E+01  0.1909E+02
   9.270  0.2308E+01  0.1911E+02
   9.280  0.2303E+01  0.1913E+02
   9.290  0.2299E+01  0.1916E+02
   9.300  0.2295E+01  0.1918E+02
   9.310  0.2293E+01  0.1920E+02
   9.320  0.2291E+01  0.1923E+02
   9.330  0.2291E+01  0.1925E+02
   9.340  0.2291E+01  0.1927E+02
   9.350  0.2292E+01  0.1929E+02
   9.360  0.2295E+01  0.1932E+02
   9.370  0.2298E+01  0.1934E+02
   9.380  0.2302E+01  0.1936E+02
   9.390  0.2308E+01  0.1939E+02
   9.400  0.2315E+01  0.1941E+02
   9.410  0.2323E+01  0.1943E+02
   9.420  0.2332E+01  0.1946E+02
   9.430  0.2343E+01  0.1948E+02
   9.440  0.2355E+01  0.1950E+02
   9.450  0.2369E+01  0.1953E+02
   9.460  0.2384E+01  0.1955E+02
   9.470  0.2400E+01  0.1958E+02
   9.480  0.2418E+01  0.1960E+02
   9.490  0.2437E+01  0.1962E+02
   9.500  0.2458E+01  0.1965E+02
   9.510  0.2481E+01  0.1967E+02
   9.520  0.2505E+01  0.1970E+02
   9.530  0.2530E+01  0.1972E+02
   9.540  0.2557E+01  0.1975E+02
   9.550  0.2585E+01  0.1977E+02
   9.560  0.2614E+01  0.1980E+02
   9.570  0.2645E+01  0.1983E+02
   9.580  0.2677E+01  0.1985E+02
   9.590  0.2710E+01  0.1988E+02
   9.600  0.2743E+01  0.1991E+02
   9.610  0.2778E+01  0.1994E+02
   9.620  0.2813E+01  0.1996E+02
   9.630  0.2848E+01  0.1999E+02
   9.640  0.2884E+01  0.2002E+02
   9.650  0.2919E+01  0.2005E+02
   9.660  0.2955E+01  0.2008E+02
   9.670  0.2990E+01  0.2011E+02
   9.680  0.3024E+01  0.2014E+02
   9.690  0.3058E+01  0.2017E+02
   9.700  0.3090E+01  0.2020E+02
   9.710  0.3122E+01  0.2023E+02
   9.720  0.3151E+01  0.2027E+02
   9.730  0.3179E+01  0.2030E+02
   9.740  0.3205E+01  0.2033E+02
   9.750  0.3229E+01  0.2036E+02
   9.760  0.3251E+01  0.2039E+02
   9.770  0.3270E+01  0.2043E+02
   9.780  0.3287E+01  0.2046E+02
   9.790  0.3300E+01  0.2049E+02
   9.800  0.3312E+01  0.2053E+02
   9.810  0.3320E+01  0.2056E+02
   9.820  0.3325E+01  0.2059E+02
   9.830  0.3328E+01  0.2063E+02
   9.840  0.3328E+01  0.2066E+02
   9.850  0.3325E+01  0.2069E+02
   9.860  0.3320E+01  0.2072E+02
   9.870  0.3312E+01  0.2076E+02
   9.880  0.3302E+01  0.2079E+02
   9.890  0.3290E+01  0.2082E+02
   9.900  0.3276E+01  0.2086E+02
   9.910  0.3260E+01  0.2089E+02
   9.920  0.3243E+01  0.2092E+02
   9.930  0.3224E+01  0.2095E+02
   9.940  0.3205E+01  0.2099E+02
   9.950  0.3185E+01  0.2102E+02
   9.960  0.3164E+01  0.2105E+02
   9.970  0.3144E+01  0.2108E+02
   9.980  0.3123E+01  0.2111E+02
   9.990  0.3103E+01  0.2114E+02
  10.000  0.3083E+01  0.2117E+02
  10.010  0.3064E+01  0.2120E+02
  10.020  0.3047E+01  0.2124E+02
  10.030  0.3030E+01  0.2127E+02
  10.040  0.3015E+01  0.2130E+02
  10.050  0.3002E+01  0.2133E+02
  10.060  0.2990E+01  0.2136E+02
  10.070  0.2981E+01  0.2139E+02
  10.080  0.2974E+01  0.2141E+02
  10.090  0.2968E+01  0.2144E+02
  10.100  0.2966E+01  0.2147E+02
  10.110  0.2965E+01  0.2150E+02
  10.120  0.2967E+01  0.2153E+02
  10.130  0.2972E+01  0.2156E+02
  10.140  0.2979E+01  0.2159E+02
  10.150  0.2989E+01  0.2162E+02
  10.160  0.3001E+01  0.2165E+02
  10.170  0.3015E+01  0.2168E+02
  10.180  0.3032E+01  0.2171E+02
  10.190  0.3052E+01  0.2174E+02
  10.200  0.3073E+01  0.2177E+02
  10.210  0.3097E+01  0.2181E+02
  10.220  0.3123E+01  0.2184E+02
  10.230  0.3150E+01  0.2187E+02
  10.240  0.3180E+01  0.2190E+02
  10.250  0.3211E+01  0.2193E+02
  10.260  0.3243E+01  0.2196E+02
  10.270  0.3277E+01  0.2200E+02
  10.280  0.3312E+01  0.2203E+02
  10.290  0.3347E+01  0.2206E+02
  10.300  0.3384E+01  0.2210E+02
  10.310  0.3420E+01  0.2213E+02
  10.320  0.3457E+01  0.2217E+02
  10.330  0.3494E+01  0.2220E+02
  10.340  0.3531E+01  0.2224E+02
  10.350  0.3567E+01  0.2227E+02
  10.360  0.3602E+01  0.2231E+02
  10.370  0.3636E+01  0.2235E+02
  10.380  0.3669E+01  0.2238E+02
  10.390  0.3701E+01  0.2242E+02
  10.400  0.3730E+01  0.2246E+02
  10.410  0.3758E+01  0.2249E+02
  10.420  0.3784E+01  0.2253E+02
  10.430  0.3807E+01  0.2257E+02
  10.440  0.3827E+01  0.2261E+02
  10.450  0.3845E+01  0.2265E+02
  10.460  0.3860E+01  0.2268E+02
  10.470  0.3872E+01  0.2272E+02
  10.480  0.3881E+01  0.2276E+02
  10.490  0.3886E+01  0.2280E+02
  10.500  0.3889E+01  0.2284E+02
  10.510  0.3888E+01  0.2288E+02
  10.520  0.3884E+01  0.2292E+02
  10.530  0.3877E+01  0.2296E+02
  10.540  0.3867E+01  0.2300E+02
  10.550  0.3854E+01  0.2303E+02
  10.560  0.3838E+01  0.2307E+02
  10.570  0.3819E+01  0.2311E+02
  10.580  0.3799E+01  0.2315E+02
  10.590  0.3776E+01  0.2319E+02
  10.600  0.3752E+01  0.2322E+02
  10.610  0.3726E+01  0.2326E+02
  10.620  0.3699E+01  0.2330E+02
  10.630  0.3671E+01  0.2333E+02
  10.640  0.3642E+01  0.2337E+02
  10.650  0.3613E+01  0.2341E+02
  10.660  0.3585E+01  0.2344E+02
  10.670  0.3556E+01  0.2348E+02
  10.680  0.3528E+01  0.2351E+02
  10.690  0.3501E+01  0.2355E+02
  10.700  0.3476E+01  0.2358E+02
  10.710  0.3451E+01  0.2362E+02
  10.720  0.3428E+01  0.2365E+02
  10.730  0.3406E+01  0.2369E+02
  10.740  0.3387E+01  0.2372E+02
  10.750  0.3369E+01  0.2375E+02
  10.760  0.3353E+01  0.2379E+02
  10.770  0.3339E+01  0.2382E+02
  10.780  0.3327E+01  0.2385E+02
  10.790  0.3316E+01  0.2389E+02
  10.800  0.3308E+01  0.2392E+02
  10.810  0.3301E+01  0.2395E+02
  10.820  0.3296E+01  0.2399E+02
  10.830  0.3293E+01  0.2402E+02
  10.840  0.3291E+01  0.2405E+02
  10.850  0.3291E+01  0.2409E+02
  10.860  0.3292E+01  0.2412E+02
  10.870  0.3294E+01  0.2415E+02
  10.880  0.3297E+01  0.2418E+02
  10.890  0.3300E+01  0.2422E+02
  10.900  0.3305E+01  0.2425E+02
  10.910  0.3310E+01  0.2428E+02
  10.920  0.3316E+01  0.2432E+02
  10.930  0.3321E+01  0.2435E+02
  10.940  0.3328E+01  0.2438E+02
  10.950  0.3334E+01  0.2442E+02
  10.960  0.3340E+01  0.2445E+02
  10.970  0.3347E+01  0.2448E+02
  10.980  0.3353E+01  0.2452E+02
  10.990  0.3359E+01  0.2455E+02
  11.000  0.3365E+01  0.2458E+02
  11.010  0.3370E+01  0.2462E+02
  11.020  0.3375E+01  0.2465E+02
  11.030  0.3380E+01  0.2469E+02
  11.040  0.3385E+01  0.2472E+02
  11.050  0.3389E+01  0.2475E+02
  11.060  0.3393E+01  0.2479E+02
  11.070  0.3397E+01  0.2482E+02
  11.080  0.3400E+01  0.2485E+02
  11.090  0.3403E+01  0.2489E+02
  11.100  0.3406E+01  0.2492E+02
  11.110  0.3408E+01  0.2496E+02
  11.120  0.3410E+01  0.2499E+02
  11.130  0.3412E+01  0.2503E+02
  11.140  0.3413E+01  0.2506E+02
  11.150  0.3414E+01  0.2509E+02
  11.160  0.3415E+01  0.2513E+02
  11.170  0.3415E+01  0.2516E+02
  11.180  0.3414E+01  0.2520E+02
  11.190  0.3413E+01  0.2523E+02
  11.200  0.3412E+01  0.2526E+02
  11.210  0.3410E+01  0.2530E+02
  11.220  0.3407E+01  0.2533E+02
  11.230  0.3404E+01  0.2537E+02
  11.240  0.3400E+01  0.2540E+02
  11.250  0.3394E+01  0.2543E+02
  11.260  0.3388E+01  0.2547E+02
  11.270  0.3382E+01  0.2550E+02
  11.280  0.3373E+01  0.2554E+02
  11.290  0.3364E+01  0.2557E+02
  11.300  0.3354E+01  0.2560E+02
  11.310  0.3343E+01  0.2564E+02
  11.320  0.3330E+01  0.2567E+02
  11.330  0.3316E+01  0.2570E+02
  11.340  0.3300E+01  0.2574E+02
  11.350  0.3283E+01  0.2577E+02
  11.360  0.3265E+01  0.2580E+02
  11.370  0.3246E+01  0.2583E+02
  11.380  0.3225E+01  0.2587E+02
  11.390  0.3202E+01  0.2590E+02
  11.400  0.3179E+01  0.2593E+02
  11.410  0.3153E+01  0.2596E+02
  11.420  0.3127E+01  0.2599E+02
  11.430  0.3099E+01  0.2602E+02
  11.440  0.3070E+01  0.2605E+02
  11.450  0.3040E+01  0.2608E+02
  11.460  0.3008E+01  0.2611E+02
  11.470  0.2976E+01  0.2614E+02
  11.480  0.2942E+01  0.2617E+02
  11.490  0.2907E+01  0.2620E+02
  11.500  0.2871E+01  0.2623E+02
  11.510  0.2835E+01  0.2626E+02
  11.520  0.2797E+01  0.2629E+02
  11.530  0.2759E+01  0.2632E+02
  11.540  0.2721E+01  0.2634E+02
  11.550  0.2681E+01  0.2637E+02
  11.560  0.2641E+01  0.2640E+02
  11.570  0.2601E+01  0.2642E+02
  11.580  0.2561E+01  0.2645E+02
  11.590  0.2520E+01  0.2647E+02
  11.600  0.2479E+01  0.2650E+02
  11.610  0.2439E+01  0.2652E+02
  11.620  0.2398E+01  0.2655E+02
  11.630  0.2358E+01  0.2657E+02
  11.640  0.2317E+01  0.2659E+02
  11.650  0.2278E+01  0.2662E+02
  11.660  0.2239E+01  0.2664E+02
  11.670  0.2200E+01  0.2666E+02
  11.680  0.2163E+01  0.2668E+02
  11.690  0.2126E+01  0.2670E+02
  11.700  0.2090E+01  0.2672E+02
  11.710  0.2056E+01  0.2674E+02
  11.720  0.2022E+01  0.2676E+02
  11.730  0.1990E+01  0.2678E+02
  11.740  0.1959E+01  0.2680E+02
  11.750  0.1929E+01  0.2682E+02
  11.760  0.1900E+01  0.2684E+02
  11.770  0.1873E+01  0.2686E+02
  11.780  0.1848E+01  0.2688E+02
  11.790  0.1824E+01  0.2690E+02
  11.800  0.1801E+01  0.2692E+02
  11.810  0.1780E+01  0.2693E+02
  11.820  0.1760E+01  0.2695E+02
  11.830  0.1741E+01  0.2697E+02
  11.840  0.1724E+01  0.2699E+02
  11.850  0.1708E+01  0.2700E+02
  11.860  0.1693E+01  0.2702E+02
  11.870  0.1679E+01  0.2704E+02
  11.880  0.1666E+01  0.2705E+02
  11.890  0.1654E+01  0.2707E+02
  11.900  0.1643E+01  0.2709E+02
  11.910  0.1633E+01  0.2710E+02
  11.920  0.1624E+01  0.2712E+02
  11.930  0.1615E+01  0.2713E+02
  11.940  0.1606E+01  0.2715E+02
  11.950  0.1598E+01  0.2717E+02
  11.960  0.1591E+01  0.2718E+02
  11.970  0.1584E+01  0.2720E+02
  11.980  0.1577E+01  0.2721E+02
  11.990  0.1570E+01  0.2723E+02
  12.000  0.1564E+01  0.2725E+02
  12.010  0.1557E+01  0.2726E+02
  12.020  0.1551E+01  0.2728E+02
  12.030  0.1545E+01  0.2729E+02
  12.040  0.1539E+01  0.2731E+02
  12.050  0.1532E+01  0.2732E+02
  12.060  0.1526E+01  0.2734E+02
  12.070  0.1520E+01  0.2735E+02
  12.080  0.1514E+01  0.2737E+02
  12.090  0.1508E+01  0.2738E+02
  12.100  0.1502E+01  0.2740E+02
  12.110  0.1495E+01  0.2741E+02
  12.120  0.1489E+01  0.2743E+02
  12.130  0.1483E+01  0.2744E+02
  12.140  0.1476E+01  0.2746E+02
  12.150  0.1470E+01  0.2747E+02
  12.160  0.1464E+01  0.2749E+02
  12.170  0.1457E+01  0.2750E+02
  12.180  0.1451E+01  0.2752E+02
  12.190  0.1444E+01  0.2753E+02
  12.200  0.1437E+01  0.2755E+02
  12.210  0.1430E+01  0.2756E+02
  12.220  0.1423E+01  0.2757E+02
  12.230  0.1415E+01  0.2759E+02
  12.240  0.1407E+01  0.2760E+02
  12.250  0.1399E+01  0.2762E+02
  12.260  0.1390E+01  0.2763E+02
  12.270  0.1381E+01  0.2764E+02
  12.280  0.1371E+01  0.2766E+02
  12.290  0.1361E+01  0.2767E+02
  12.300  0.1349E+01  0.2768E+02
  12.310  0.1337E+01  0.2770E+02
  12.320  0.1324E+01  0.2771E+02
  12.330  0.1310E+01  0.2772E+02
  12.340  0.1295E+01  0.2774E+02
  12.350  0.1278E+01  0.2775E+02
  12.360  0.1260E+01  0.2776E+02
  12.370  0.1241E+01  0.2778E+02
  12.380  0.1221E+01  0.2779E+02
  12.390  0.1199E+01  0.2780E+02
  12.400  0.1176E+01  0.2781E+02
  12.410  0.1151E+01  0.2782E+02
  12.420  0.1124E+01  0.2783E+02
  12.430  0.1096E+01  0.2784E+02
  12.440  0.1066E+01  0.2786E+02
  12.450  0.1035E+01  0.2787E+02
  12.460  0.1003E+01  0.2788E+02
  12.470  0.9692E+00  0.2789E+02
  12.480  0.9341E+00  0.2789E+02
  12.490  0.8979E+00  0.2790E+02
  12.500  0.8607E+00  0.2791E+02
  12.510  0.8227E+00  0.2792E+02
  12.520  0.7839E+00  0.2793E+02
  12.530  0.7446E+00  0.2794E+02
  12.540  0.7049E+00  0.2794E+02
  12.550  0.6650E+00  0.2795E+02
  12.560  0.6251E+00  0.2796E+02
  12.570  0.5854E+00  0.2796E+02
  12.580  0.5461E+00  0.2797E+02
  12.590  0.5072E+00  0.2797E+02
  12.600  0.4691E+00  0.2798E+02
  12.610  0.4319E+00  0.2798E+02
  12.620  0.3956E+00  0.2799E+02
  12.630  0.3605E+00  0.2799E+02
  12.640  0.3267E+00  0.2799E+02
  12.650  0.2942E+00  0.2800E+02
  12.660  0.2632E+00  0.2800E+02
  12.670  0.2338E+00  0.2800E+02
  12.680  0.2059E+00  0.2800E+02
  12.690  0.1796E+00  0.2800E+02
  12.700  0.1549E+00  0.2801E+02
  12.710  0.1319E+00  0.2801E+02
  12.720  0.1106E+00  0.2801E+02
  12.730  0.9086E-01  0.2801E+02
  12.740  0.7272E-01  0.2801E+02
  12.750  0.5614E-01  0.2801E+02
  12.760  0.4107E-01  0.2801E+02
  12.770  0.2746E-01  0.2801E+02
  12.780  0.1525E-01  0.2801E+02
  12.790  0.4366E-02  0.2801E+02
  12.800 -0.5245E-02  0.2801E+02
  12.810 -0.1366E-01  0.2801E+02
  12.820 -0.2093E-01  0.2801E+02
  12.830 -0.2715E-01  0.2801E+02
  12.840 -0.3238E-01  0.2801E+02
  12.850 -0.3669E-01  0.2801E+02
  12.860 -0.4014E-01  0.2801E+02
  12.870 -0.4282E-01  0.2801E+02
  12.880 -0.4478E-01  0.2801E+02
  12.890 -0.4609E-01  0.2801E+02
  12.900 -0.4681E-01  0.2801E+02
  12.910 -0.4701E-01  0.2801E+02
  12.920 -0.4674E-01  0.2801E+02
  12.930 -0.4607E-01  0.2801E+02
  12.940 -0.4504E-01  0.2801E+02
  12.950 -0.4371E-01  0.2801E+02
  12.960 -0.4214E-01  0.2800E+02
  12.970 -0.4036E-01  0.2800E+02
  12.980 -0.3842E-01  0.2800E+02
  12.990 -0.3636E-01  0.2800E+02
  13.000 -0.3421E-01  0.2800E+02
  13.010 -0.3202E-01  0.2800E+02
  13.020 -0.2982E-01  0.2800E+02
  13.030 -0.2762E-01  0.2800E+02
  13.040 -0.2545E-01  0.2800E+02
  13.050 -0.2334E-01  0.2800E+02
  13.060 -0.2130E-01  0.2800E+02
  13.070 -0.1935E-01  0.2800E+02
  13.080 -0.1749E-01  0.2800E+02
  13.090 -0.1574E-01  0.2800E+02
  13.100 -0.1409E-01  0.2800E+02
  13.110 -0.1256E-01  0.2800E+02
  13.120 -0.1114E-01  0.2800E+02
  13.130 -0.9842E-02  0.2800E+02
  13.140 -0.8653E-02  0.2800E+02
  13.150 -0.7573E-02  0.2800E+02
  13.160 -0.6598E-02  0.2800E+02
  13.170 -0.5722E-02  0.2800E+02
  13.180 -0.4941E-02  0.2800E+02
  13.190 -0.4247E-02  0.2800E+02
  13.200 -0.3634E-02  0.2800E+02
  13.210 -0.3096E-02  0.2800E+02
  13.220 -0.2626E-02  0.2800E+02
  13.230 -0.2217E-02  0.2800E+02
  13.240 -0.1864E-02  0.2800E+02
  13.250 -0.1560E-02  0.2800E+02
  13.260 -0.1299E-02  0.2800E+02
  13.270 -0.1078E-02  0.2800E+02
  13.280 -0.8900E-03  0.2800E+02
  13.290 -0.7316E-03  0.2800E+02
  13.300 -0.5988E-03  0.2800E+02
  13.310 -0.4879E-03  0.2800E+02
  13.320 -0.3958E-03  0.2800E+02
  13.330 -0.3196E-03  0.2800E+02
  13.340 -0.2570E-03  0.2800E+02
  13.350 -0.2057E-03  0.2800E+02
  13.360 -0.1639E-03  0.2800E+02
  13.370 -0.1300E-03  0.2800E+02
  13.380 -0.1027E-03  0.2800E+02
  13.390 -0.8073E-04  0.2800E+02
  13.400 -0.6318E-04  0.2800E+02
  13.410 -0.4923E-04  0.2800E+02
  13.420 -0.3818E-04  0.2800E+02
  13.430 -0.2948E-04  0.2800E+02
  13.440 -0.2266E-04  0.2800E+02
  13.450 -0.1734E-04  0.2800E+02
  13.460 -0.1321E-04  0.2800E+02
  13.470 -0.1001E-04  0.2800E+02
  13.480 -0.7558E-05  0.2800E+02
  13.490 -0.5679E-05  0.2800E+02
  13.500 -0.4247E-05  0.2800E+02
  13.510 -0.3162E-05  0.2800E+02
  13.520 -0.2343E-05  0.2800E+02
  13.530 -0.1728E-05  0.2800E+02
  13.540 -0.1269E-05  0.2800E+02
  13.550 -0.9274E-06  0.2800E+02
  13.560 -0.6746E-06  0.2800E+02
  13.570 -0.4885E-06  0.2800E+02
  13.580 -0.3521E-06  0.2800E+02
  13.590 -0.2525E-06  0.2800E+02
  13.600 -0.1803E-06  0.2800E+02
  13.610 -0.1281E-06  0.2800E+02
  13.620 -0.9064E-07  0.2800E+02
  13.630 -0.6381E-07  0.2800E+02
  13.640 -0.4471E-07  0.2800E+02
  13.650 -0.3118E-07  0.2800E+02
  13.660 -0.2164E-07  0.2800E+02
  13.670 -0.1495E-07  0.2800E+02
  13.680 -0.1028E-07  0.2800E+02
  13.690 -0.7033E-08  0.2800E+02
  13.700 -0.4790E-08  0.2800E+02
  13.710 -0.3246E-08  0.2800E+02
  13.720 -0.2190E-08  0.2800E+02
  13.730 -0.1470E-08  0.2800E+02
  13.740 -0.9821E-09  0.2800E+02
  13.750 -0.6530E-09  0.2800E+02
  13.760 -0.4321E-09  0.2800E+02
  13.770 -0.2845E-09  0.2800E+02
  13.780 -0.1865E-09  0.2800E+02
  13.790 -0.1216E-09  0.2800E+02
  13.800 -0.7893E-10  0.2800E+02
  13.810 -0.5098E-10  0.2800E+02
  13.820 -0.3277E-10  0.2800E+02
  13.830 -0.2096E-10  0.2800E+02
  13.840 -0.1334E-10  0.2800E+02
  13.850 -0.8453E-11  0.2800E+02
  13.860 -0.5329E-11  0.2800E+02
  13.870 -0.3343E-11  0.2800E+02
  13.880 -0.2087E-11  0.2800E+02
  13.890 -0.1297E-11  0.2800E+02
  13.900 -0.8016E-12  0.2800E+02
  13.910 -0.4931E-12  0.2800E+02
  13.920 -0.3019E-12  0.2800E+02
  13.930 -0.1839E-12  0.2800E+02
  13.940 -0.1115E-12  0.2800E+02
  13.950 -0.6726E-13  0.2800E+02
  13.960 -0.4038E-13  0.2800E+02
  13.970 -0.2412E-13  0.2800E+02
  13.980 -0.1434E-13  0.2800E+02
  13.990 -0.8481E-14  0.2800E+02
  14.000 -0.4992E-14  0.2800E+02
  14.010 -0.2924E-14  0.2800E+02
  14.020 -0.1704E-14  0.2800E+02
  14.030 -0.9885E-15  0.2800E+02
  14.040 -0.5705E-15  0.2800E+02
  14.050 -0.3276E-15  0.2800E+02
  14.060 -0.1872E-15  0.2800E+02
  14.070 -0.1065E-15  0.2800E+02
  14.080 -0.6024E-16  0.2800E+02
  14.090 -0.3392E-16  0.2800E+02
  14.100 -0.1900E-16  0.2800E+02
  14.110 -0.1059E-16  0.2800E+02
  14.120 -0.5877E-17  0.2800E+02
  14.130 -0.3244E-17  0.2800E+02
  14.140 -0.1782E-17  0.2800E+02
  14.150 -0.9740E-18  0.2800E+02
  14.160 -0.5297E-18  0.2800E+02
  14.170 -0.2867E-18  0.2800E+02
  14.180 -0.1544E-18  0.2800E+02
  14.190 -0.8272E-19  0.2800E+02
  14.200 -0.4410E-19  0.2800E+02
  14.210 -0.2340E-19  0.2800E+02
  14.220 -0.1235E-19  0.2800E+02
  14.230 -0.6489E-20  0.2800E+02
  14.240 -0.3392E-20  0.2800E+02
  14.250 -0.1764E-20  0.2800E+02
  14.260 -0.9129E-21  0.2800E+02
  14.270 -0.4701E-21  0.2800E+02
  14.280 -0.2409E-21  0.2800E+02
  14.290 -0.1228E-21  0.2800E+02
  14.300 -0.6231E-22  0.2800E+02
  14.310 -0.3146E-22  0.2800E+02
  14.320 -0.1580E-22  0.2800E+02
  14.330 -0.7898E-23  0.2800E+02
  14.340 -0.3928E-23  0.2800E+02
  14.350 -0.1944E-23  0.2800E+02
  14.360 -0.9571E-24  0.2800E+02
  14.370 -0.4690E-24  0.2800E+02
  14.380 -0.2286E-24  0.2800E+02
  14.390 -0.1109E-24  0.2800E+02
  14.400 -0.5354E-25  0.2800E+02
  14.410 -0.2572E-25  0.2800E+02
  14.420 -0.1229E-25  0.2800E+02
  14.430 -0.5845E-26  0.2800E+02
  14.440 -0.2766E-26  0.2800E+02
  14.450 -0.1302E-26  0.2800E+02
  14.460 -0.6100E-27  0.2800E+02
  14.470 -0.2844E-27  0.2800E+02
  14.480 -0.1319E-27  0.2800E+02
  14.490 -0.6088E-28  0.2800E+02
  14.500 -0.2796E-28  0.2800E+02
  14.510 -0.1278E-28  0.2800E+02
  14.520 -0.5809E-29  0.2800E+02
  14.530 -0.2628E-29  0.2800E+02
  14.540 -0.1183E-29  0.2800E+02
  14.550 -0.5300E-30  0.2800E+02
  14.560 -0.2362E-30  0.2800E+02
  14.570 -0.1048E-30  0.2800E+02
  14.580 -0.4623E-31  0.2800E+02
  14.590 -0.2030E-31  0.2800E+02
  14.600 -0.8869E-32  0.2800E+02
  14.610 -0.3855E-32  0.2800E+02
  14.620 -0.1668E-32  0.2800E+02
  14.630 -0.7178E-33  0.2800E+02
  14.640 -0.3074E-33  0.2800E+02
  14.650 -0.1310E-33  0.2800E+02
  14.660 -0.5555E-34  0.2800E+02
  14.670 -0.2344E-34  0.2800E+02
  14.680 -0.9840E-35  0.2800E+02
  14.690 -0.4110E-35  0.2800E+02
  14.700 -0.1708E-35  0.2800E+02
  14.710 -0.7066E-36  0.2800E+02
  14.720 -0.2908E-36  0.2800E+02
  14.730 -0.1191E-36  0.2800E+02
  14.740 -0.4851E-37  0.2800E+02
  14.750 -0.1967E-37  0.2800E+02
  14.760 -0.7933E-38  0.2800E+02
  14.770 -0.3184E-38  0.2800E+02
  14.780 -0.1272E-38  0.2800E+02
  14.790 -0.5053E-39  0.2800E+02
  14.800 -0.1998E-39  0.2800E+02
  14.810 -0.7862E-40  0.2800E+02
  14.820 -0.3078E-40  0.2800E+02
  14.830 -0.1199E-40  0.2800E+02
  14.840 -0.4647E-41  0.2800E+02
  14.850 -0.1792E-41  0.2800E+02
  14.860 -0.6877E-42  0.2800E+02
  14.870 -0.2626E-42  0.2800E+02
  14.880 -0.9977E-43  0.2800E+02
  14.890 -0.3772E-43  0.2800E+02
  14.900 -0.1419E-43  0.2800E+02
  14.910 -0.5311E-44  0.2800E+02
  14.920 -0.1978E-44  0.2800E+02
  14.930 -0.7329E-45  0.2800E+02
  14.940 -0.2702E-45  0.2800E+02
  14.950 -0.9915E-46  0.2800E+02
  14.960 -0.3620E-46  0.2800E+02
  14.970 -0.1315E-46  0.2800E+02
  14.980 -0.4752E-47  0.2800E+02
  14.990 -0.1709E-47  0.2800E+02
  15.000 -0.6115E-48  0.2800E+02
  15.010 -0.2177E-48  0.2800E+02
  15.020 -0.7715E-49  0.2800E+02
  15.030 -0.2720E-49  0.2800E+02
  15.040 -0.9539E-50  0.2800E+02
  15.050 -0.3329E-50  0.2800E+02
  15.060 -0.1156E-50  0.2800E+02
  15.070 -0.3996E-51  0.2800E+02
  15.080 -0.1374E-51  0.2800E+02
  15.090 -0.4700E-52  0.2800E+02
  15.100 -0.1600E-52  0.2800E+02
  15.110 -0.5419E-53  0.2800E+02
  15.120 -0.1827E-53  0.2800E+02
  15.130 -0.6125E-54  0.2800E+02
  15.140 -0.2044E-54  0.2800E+02
  15.150 -0.6786E-55  0.2800E+02
  15.160 -0.2242E-55  0.2800E+02
  15.170 -0.7370E-56  0.2800E+02
  15.180 -0.2411E-56  0.2800E+02
  15.190 -0.7845E-57  0.2800E+02
  15.200 -0.2541E-57  0.2800E+02
  15.210 -0.8186E-58  0.2800E+02
  15.220 -0.2625E-58  0.2800E+02
  15.230 -0.8373E-59  0.2800E+02
  15.240 -0.2658E-59  0.2800E+02
  15.250 -0.8395E-60  0.2800E+02
  15.260 -0.2638E-60  0.2800E+02
  15.270 -0.8251E-61  0.2800E+02
  15.280 -0.2567E-61  0.2800E+02
  15.290 -0.7948E-62  0.2800E+02
  15.300 -0.2448E-62  0.2800E+02
  15.310 -0.7505E-63  0.2800E+02
  15.320 -0.2289E-63  0.2800E+02
  15.330 -0.6947E-64  0.2800E+02
  15.340 -0.2098E-64  0.2800E+02
  15.350 -0.6303E-65  0.2800E+02
  15.360 -0.1884E-65  0.2800E+02
  15.370 -0.5606E-66  0.2800E+02
  15.380 -0.1659E-66  0.2800E+02
  15.390 -0.4887E-67  0.2800E+02
  15.400 -0.1432E-67  0.2800E+02
  15.410 -0.4176E-68  0.2800E+02
  15.420 -0.1212E-68  0.2800E+02
  15.430 -0.3498E-69  0.2800E+02
  15.440 -0.1005E-69  0.2800E+02
  15.450 -0.2872E-70  0.2800E+02
  15.460 -0.8168E-71  0.2800E+02
  15.470 -0.2311E-71  0.2800E+02
  15.480 -0.6508E-72  0.2800E+02
  15.490 -0.1823E-72  0.2800E+02
  15.500 -0.5083E-73  0.2800E+02
  15.510 -0.1410E-73  0.2800E+02
  15.520 -0.3892E-74  0.2800E+02
  15.530 -0.1069E-74  0.2800E+02
  15.540 -0.2921E-75  0.2800E+02
  15.550 -0.7942E-76  0.2800E+02
  15.560 -0.2149E-76  0.2800E+02
  15.570 -0.5784E-77  0.2800E+02
  15.580 -0.1549E-77  0.2800E+02
  15.590 -0.4130E-78  0.2800E+02
  15.600 -0.1096E-78  0.2800E+02
  15.610 -0.2896E-79  0.2800E+02
  15.620 -0.7650E-80  0.2800E+02
  15.630 -0.2045E-80  0.2800E+02
  15.640 -0.5786E-81  0.2800E+02
  15.650 -0.1967E-81  0.2800E+02
  15.660 -0.9776E-82  0.2800E+02
  15.670 -0.7226E-82  0.2800E+02
  15.680 -0.6574E-82  0.2800E+02
  15.690 -0.6409E-82  0.2800E+02
  15.700 -0.6368E-82  0.2800E+02
  15.710 -0.6360E-82  0.2800E+02
  15.720 -0.6359E-82  0.2800E+02
  15.730 -0.6360E-82  0.2800E+02
  15.740 -0.6362E-82  0.2800E+02
  15.750 -0.6364E-82  0.2800E+02
  15.760 -0.6366E-82  0.2800E+02
  15.770 -0.6368E-82  0.2800E+02
  15.780 -0.6370E-82  0.2800E+02
  15.790 -0.6372E-82  0.2800E+02
  15.800 -0.6374E-82  0.2800E+02
  15.810 -0.6376E-82  0.2800E+02
  15.820 -0.6378E-82  0.2800E+02
  15.830 -0.6380E-82  0.2800E+02
  15.840 -0.6382E-82  0.2800E+02
  15.850 -0.6384E-82  0.2800E+02
  15.860 -0.6386E-82  0.2800E+02
  15.870 -0.6388E-82  0.2800E+02
  15.880 -0.6390E-82  0.2800E+02
  15.890 -0.6392E-82  0.2800E+02
  15.900 -0.6394E-82  0.2800E+02
  15.910 -0.6396E-82  0.2800E+02
  15.920 -0.6398E-82  0.2800E+02
  15.930 -0.6400E-82  0.2800E+02
  15.940 -0.6402E-82  0.2800E+02
  15.950 -0.6404E-82  0.2800E+02
  15.960 -0.6406E-82  0.2800E+02
  15.970 -0.6408E-82  0.2800E+02
  15.980 -0.6410E-82  0.2800E+02
  15.990 -0.6412E-82  0.2800E+02
  16.000 -0.6414E-82  0.2800E+02
  16.010 -0.6416E-82  0.2800E+02
  16.020 -0.6418E-82  0.2800E+02
  16.030 -0.6420E-82  0.2800E+02
  16.040 -0.6422E-82  0.2800E+02
  16.050 -0.6424E-82  0.2800E+02
  16.060 -0.6426E-82  0.2800E+02
  16.070 -0.6428E-82  0.2800E+02
  16.080 -0.6430E-82  0.2800E+02
  16.090 -0.6432E-82  0.2800E+02
  16.100 -0.6434E-82  0.2800E+02
  16.110 -0.6436E-82  0.2800E+02
  16.120 -0.6438E-82  0.2800E+02
  16.130 -0.6440E-82  0.2800E+02
  16.140 -0.6442E-82  0.2800E+02
  16.150 -0.6444E-82  0.2800E+02
  16.160 -0.6446E-82  0.2800E+02
  16.170 -0.6448E-82  0.2800E+02
  16.180 -0.6450E-82  0.2800E+02
  16.190 -0.6451E-82  0.2800E+02
  16.200 -0.6453E-82  0.2800E+02
  16.210 -0.6455E-82  0.2800E+02
  16.220 -0.6457E-82  0.2800E+02
  16.230 -0.6459E-82  0.2800E+02
  16.240 -0.6461E-82  0.2800E+02
  16.250 -0.6463E-82  0.2800E+02
  16.260 -0.6465E-82  0.2800E+02
  16.270 -0.6467E-82  0.2800E+02
  16.280 -0.6469E-82  0.2800E+02
  16.290 -0.6471E-82  0.2800E+02
  16.300 -0.6473E-82  0.2800E+02
  16.310 -0.6475E-82  0.2800E+02
  16.320 -0.6477E-82  0.2800E+02
  16.330 -0.6479E-82  0.2800E+02
  16.340 -0.6481E-82  0.2800E+02
  16.350 -0.6483E-82  0.2800E+02
  16.360 -0.6485E-82  0.2800E+02
  16.370 -0.6487E-82  0.2800E+02
  16.380 -0.6489E-82  0.2800E+02
  16.390 -0.6491E-82  0.2800E+02
  16.400 -0.6493E-82  0.2800E+02
  16.410 -0.6495E-82  0.2800E+02
  16.420 -0.6497E-82  0.2800E+02
  16.430 -0.6499E-82  0.2800E+02
  16.440 -0.6501E-82  0.2800E+02
  16.450 -0.6503E-82  0.2800E+02
  16.460 -0.6505E-82  0.2800E+02
  16.470 -0.6507E-82  0.2800E+02
  16.480 -0.6509E-82  0.2800E+02
  16.490 -0.6511E-82  0.2800E+02
  16.500 -0.6513E-82  0.2800E+02
  16.510 -0.6515E-82  0.2800E+02
  16.520 -0.6517E-82  0.2800E+02
  16.530 -0.6519E-82  0.2800E+02
  16.540 -0.6521E-82  0.2800E+02
  16.550 -0.6523E-82  0.2800E+02
  16.560 -0.6525E-82  0.2800E+02
  16.570 -0.6527E-82  0.2800E+02
  16.580 -0.6529E-82  0.2800E+02
  16.590 -0.6531E-82  0.2800E+02
  16.600 -0.6533E-82  0.2800E+02
  16.610 -0.6535E-82  0.2800E+02
  16.620 -0.6537E-82  0.2800E+02
  16.630 -0.6539E-82  0.2800E+02
  16.640 -0.6541E-82  0.2800E+02
  16.650 -0.6543E-82  0.2800E+02
  16.660 -0.6545E-82  0.2800E+02
  16.670 -0.6547E-82  0.2800E+02
  16.680 -0.6549E-82  0.2800E+02
  16.690 -0.6551E-82  0.2800E+02
  16.700 -0.6553E-82  0.2800E+02
  16.710 -0.6555E-82  0.2800E+02
  16.720 -0.6557E-82  0.2800E+02
  16.730 -0.6559E-82  0.2800E+02
  16.740 -0.6561E-82  0.2800E+02
  16.750 -0.6563E-82  0.2800E+02
  16.760 -0.6565E-82  0.2800E+02
  16.770 -0.6567E-82  0.2800E+02
  16.780 -0.6569E-82  0.2800E+02
  16.790 -0.6571E-82  0.2800E+02
  16.800 -0.6573E-82  0.2800E+02
  16.810 -0.6575E-82  0.2800E+02
  16.820 -0.6577E-82  0.2800E+02
  16.830 -0.6579E-82  0.2800E+02
  16.840 -0.6581E-82  0.2800E+02
  16.850 -0.6583E-82  0.2800E+02
  16.860 -0.6585E-82  0.2800E+02
  16.870 -0.6587E-82  0.2800E+02
  16.880 -0.6589E-82  0.2800E+02
  16.890 -0.6591E-82  0.2800E+02
  16.900 -0.6593E-82  0.2800E+02
  16.910 -0.6595E-82  0.2800E+02
  16.920 -0.6597E-82  0.2800E+02
  16.930 -0.6599E-82  0.2800E+02
  16.940 -0.6601E-82  0.2800E+02
  16.950 -0.6603E-82  0.2800E+02
  16.960 -0.6605E-82  0.2800E+02
  16.970 -0.6607E-82  0.2800E+02
  16.980 -0.6609E-82  0.2800E+02
  16.990 -0.6610E-82  0.2800E+02
  17.000 -0.6612E-82  0.2800E+02
  17.010 -0.6614E-82  0.2800E+02
  17.020 -0.6616E-82  0.2800E+02
  17.030 -0.6618E-82  0.2800E+02
  17.040 -0.6620E-82  0.2800E+02
  17.050 -0.6622E-82  0.2800E+02
  17.060 -0.6624E-82  0.2800E+02
  17.070 -0.6626E-82  0.2800E+02
  17.080 -0.6628E-82  0.2800E+02
  17.090 -0.6630E-82  0.2800E+02
  17.100 -0.6632E-82  0.2800E+02
  17.110 -0.6634E-82  0.2800E+02
  17.120 -0.6636E-82  0.2800E+02
  17.130 -0.6638E-82  0.2800E+02
  17.140 -0.6640E-82  0.2800E+02
  17.150 -0.6642E-82  0.2800E+02
  17.160 -0.6644E-82  0.2800E+02
  17.170 -0.6646E-82  0.2800E+02
  17.180 -0.6648E-82  0.2800E+02
  17.190 -0.6650E-82  0.2800E+02
  17.200 -0.6652E-82  0.2800E+02
  17.210 -0.6654E-82  0.2800E+02
  17.220 -0.6656E-82  0.2800E+02
  17.230 -0.6658E-82  0.2800E+02
  17.240 -0.6660E-82  0.2800E+02
  17.250 -0.6662E-82  0.2800E+02
  17.260 -0.6664E-82  0.2800E+02
  17.270 -0.6666E-82  0.2800E+02
  17.280 -0.6668E-82  0.2800E+02
  17.290 -0.6670E-82  0.2800E+02
  17.300 -0.6672E-82  0.2800E+02
  17.310 -0.6674E-82  0.2800E+02
  17.320 -0.6676E-82  0.2800E+02
  17.330 -0.6678E-82  0.2800E+02
  17.340 -0.6680E-82  0.2800E+02
  17.350 -0.6682E-82  0.2800E+02
  17.360 -0.6684E-82  0.2800E+02
  17.370 -0.6686E-82  0.2800E+02
  17.380 -0.6688E-82  0.2800E+02
  17.390 -0.6690E-82  0.2800E+02
  17.400 -0.6692E-82  0.2800E+02
  17.410 -0.6694E-82  0.2800E+02
  17.420 -0.6696E-82  0.2800E+02
  17.430 -0.6698E-82  0.2800E+02
  17.440 -0.6700E-82  0.2800E+02
  17.450 -0.6702E-82  0.2800E+02
  17.460 -0.6704E-82  0.2800E+02
  17.470 -0.6706E-82  0.2800E+02
  17.480 -0.6708E-82  0.2800E+02
  17.490 -0.6710E-82  0.2800E+02
  17.500 -0.6712E-82  0.2800E+02
  17.510 -0.6714E-82  0.2800E+02
  17.520 -0.6716E-82  0.2800E+02
  17.530 -0.6718E-82  0.2800E+02
  17.540 -0.6720E-82  0.2800E+02
  17.550 -0.6722E-82  0.2800E+02
  17.560 -0.6724E-82  0.2800E+02
  17.570 -0.6726E-82  0.2800E+02
  17.580 -0.6728E-82  0.2800E+02
  17.590 -0.6730E-82  0.2800E+02
  17.600 -0.6732E-82  0.2800E+02
  17.610 -0.6734E-82  0.2800E+02
  17.620 -0.6736E-82  0.2800E+02
  17.630 -0.6738E-82  0.2800E+02
  17.640 -0.6740E-82  0.2800E+02
  17.650 -0.6742E-82  0.2800E+02
  17.660 -0.6744E-82  0.2800E+02
  17.670 -0.6746E-82  0.2800E+02
  17.680 -0.6748E-82  0.2800E+02
  17.690 -0.6750E-82  0.2800E+02
  17.700 -0.6752E-82  0.2800E+02
  17.710 -0.6754E-82  0.2800E+02
  17.720 -0.6756E-82  0.2800E+02
  17.730 -0.6758E-82  0.2800E+02
  17.740 -0.6760E-82  0.2800E+02
  17.750 -0.6762E-82  0.2800E+02
  17.760 -0.6764E-82  0.2800E+02
  17.770 -0.6766E-82  0.2800E+02
  17.780 -0.6768E-82  0.2800E+02
  17.790 -0.6769E-82  0.2800E+02
  17.800 -0.6771E-82  0.2800E+02
  17.810 -0.6773E-82  0.2800E+02
  17.820 -0.6775E-82  0.2800E+02
  17.830 -0.6777E-82  0.2800E+02
  17.840 -0.6779E-82  0.2800E+02
  17.850 -0.6781E-82  0.2800E+02
  17.860 -0.6783E-82  0.2800E+02
  17.870 -0.6785E-82  0.2800E+02
  17.880 -0.6787E-82  0.2800E+02
  17.890 -0.6789E-82  0.2800E+02
  17.900 -0.6791E-82  0.2800E+02
  17.910 -0.6793E-82  0.2800E+02
  17.920 -0.6795E-82  0.2800E+02
  17.930 -0.6797E-82  0.2800E+02
  17.940 -0.6799E-82  0.2800E+02
  17.950 -0.6801E-82  0.2800E+02
  17.960 -0.6803E-82  0.2800E+02
  17.970 -0.6805E-82  0.2800E+02
  17.980 -0.6807E-82  0.2800E+02
  17.990 -0.6809E-82  0.2800E+02
  18.000 -0.6811E-82  0.2800E+02
  18.010 -0.6813E-82  0.2800E+02
  18.020 -0.6815E-82  0.2800E+02
  18.030 -0.6817E-82  0.2800E+02
  18.040 -0.6819E-82  0.2800E+02
  18.050 -0.6821E-82  0.2800E+02
  18.060 -0.6823E-82  0.2800E+02
  18.070 -0.6825E-82  0.2800E+02
  18.080 -0.6827E-82  0.2800E+02
  18.090 -0.6829E-82  0.2800E+02
  18.100 -0.6831E-82  0.2800E+02
  18.110 -0.6833E-82  0.2800E+02
  18.120 -0.6835E-82  0.2800E+02
  18.130 -0.6837E-82  0.2800E+02
  18.140 -0.6839E-82  0.2800E+02
  18.150 -0.6841E-82  0.2800E+02
  18.160 -0.6843E-82  0.2800E+02
  18.170 -0.6845E-82  0.2800E+02
  18.180 -0.6847E-82  0.2800E+02
  18.190 -0.6849E-82  0.2800E+02
  18.200 -0.6851E-82  0.2800E+02
  18.210 -0.6853E-82  0.2800E+02
  18.220 -0.6855E-82  0.2800E+02
  18.230 -0.6857E-82  0.2800E+02
  18.240 -0.6859E-82  0.2800E+02
  18.250 -0.6861E-82  0.2800E+02
  18.260 -0.6863E-82  0.2800E+02
  18.270 -0.6865E-82  0.2800E+02
  18.280 -0.6867E-82  0.2800E+02
  18.290 -0.6869E-82  0.2800E+02
  18.300 -0.6871E-82  0.2800E+02
  18.310 -0.6873E-82  0.2800E+02
  18.320 -0.6875E-82  0.2800E+02
  18.330 -0.6877E-82  0.2800E+02
  18.340 -0.6879E-82  0.2800E+02
  18.350 -0.6881E-82  0.2800E+02
  18.360 -0.6883E-82  0.2800E+02
  18.370 -0.6885E-82  0.2800E+02
  18.380 -0.6887E-82  0.2800E+02
  18.390 -0.6889E-82  0.2800E+02
  18.400 -0.6891E-82  0.2800E+02
  18.410 -0.6893E-82  0.2800E+02
  18.420 -0.6895E-82  0.2800E+02
  18.430 -0.6897E-82  0.2800E+02
  18.440 -0.6899E-82  0.2800E+02
  18.450 -0.6901E-82  0.2800E+02
  18.460 -0.6903E-82  0.2800E+02
  18.470 -0.6905E-82  0.2800E+02
  18.480 -0.6907E-82  0.2800E+02
  18.490 -0.6909E-82  0.2800E+02
  18.500 -0.6911E-82  0.2800E+02
  18.510 -0.6913E-82  0.2800E+02
  18.520 -0.6915E-82  0.2800E+02
  18.530 -0.6917E-82  0.2800E+02
  18.540 -0.6919E-82  0.2800E+02
  18.550 -0.6921E-82  0.2800E+02
  18.560 -0.6923E-82  0.2800E+02
  18.570 -0.6925E-82  0.2800E+02
  18.580 -0.6927E-82  0.2800E+02
  18.590 -0.6928E-82  0.2800E+02
  18.600 -0.6930E-82  0.2800E+02
  18.610 -0.6932E-82  0.2800E+02
  18.620 -0.6934E-82  0.2800E+02
  18.630 -0.6936E-82  0.2800E+02
  18.640 -0.6938E-82  0.2800E+02
  18.650 -0.6940E-82  0.2800E+02
  18.660 -0.6942E-82  0.2800E+02
  18.670 -0.6944E-82  0.2800E+02
  18.680 -0.6946E-82  0.2800E+02
  18.690 -0.6948E-82  0.2800E+02
  18.700 -0.6950E-82  0.2800E+02
  18.710 -0.6952E-82  0.2800E+02
  18.720 -0.6954E-82  0.2800E+02
  18.730 -0.6956E-82  0.2800E+02
  18.740 -0.6958E-82  0.2800E+02
  18.750 -0.6960E-82  0.2800E+02
  18.760 -0.6962E-82  0.2800E+02
  18.770 -0.6964E-82  0.2800E+02
  18.780 -0.6966E-82  0.2800E+02
  18.790 -0.6968E-82  0.2800E+02
  18.800 -0.6970E-82  0.2800E+02
  18.810 -0.6972E-82  0.2800E+02
  18.820 -0.6974E-82  0.2800E+02
  18.830 -0.6976E-82  0.2800E+02
  18.840 -0.6978E-82  0.2800E+02
  18.850 -0.6980E-82  0.2800E+02
  18.860 -0.6982E-82  0.2800E+02
  18.870 -0.6984E-82  0.2800E+02
  18.880 -0.6986E-82  0.2800E+02
  18.890 -0.6988E-82  0.2800E+02
  18.900 -0.6990E-82  0.2800E+02
  18.910 -0.6992E-82  0.2800E+02
  18.920 -0.6994E-82  0.2800E+02
  18.930 -0.6996E-82  0.2800E+02
  18.940 -0.6998E-82  0.2800E+02
  18.950 -0.7000E-82  0.2800E+02
  18.960 -0.7002E-82  0.2800E+02
  18.970 -0.7004E-82  0.2800E+02
  18.980 -0.7006E-82  0.2800E+02
  18.990 -0.7008E-82  0.2800E+02
  19.000 -0.7010E-82  0.2800E+02
  19.010 -0.7012E-82  0.2800E+02
  19.020 -0.7014E-82  0.2800E+02
  19.030 -0.7016E-82  0.2800E+02
  19.040 -0.7018E-82  0.2800E+02
  19.050 -0.7020E-82  0.2800E+02
  19.060 -0.7022E-82  0.2800E+02
  19.070 -0.7024E-82  0.2800E+02
  19.080 -0.7026E-82  0.2800E+02
  19.090 -0.7028E-82  0.2800E+02
  19.100 -0.7030E-82  0.2800E+02
  19.110 -0.7032E-82  0.2800E+02
  19.120 -0.7034E-82  0.2800E+02
  19.130 -0.7036E-82  0.2800E+02
  19.140 -0.7038E-82  0.2800E+02
  19.150 -0.7040E-82  0.2800E+02
  19.160 -0.7042E-82  0.2800E+02
  19.170 -0.7044E-82  0.2800E+02
  19.180 -0.7046E-82  0.2800E+02
  19.190 -0.7048E-82  0.2800E+02
  19.200 -0.7050E-82  0.2800E+02
  19.210 -0.7052E-82  0.2800E+02
  19.220 -0.7054E-82  0.2800E+02
  19.230 -0.7056E-82  0.2800E+02
  19.240 -0.7058E-82  0.2800E+02
  19.250 -0.7060E-82  0.2800E+02
  19.260 -0.7062E-82  0.2800E+02
  19.270 -0.7064E-82  0.2800E+02
  19.280 -0.7066E-82  0.2800E+02
  19.290 -0.7068E-82  0.2800E+02
  19.300 -0.7070E-82  0.2800E+02
  19.310 -0.7072E-82  0.2800E+02
  19.320 -0.7074E-82  0.2800E+02
  19.330 -0.7076E-82  0.2800E+02
  19.340 -0.7078E-82  0.2800E+02
  19.350 -0.7080E-82  0.2800E+02
  19.360 -0.7082E-82  0.2800E+02
  19.370 -0.7084E-82  0.2800E+02
  19.380 -0.7086E-82  0.2800E+02
  19.390 -0.7088E-82  0.2800E+02
  19.400 -0.7089E-82  0.2800E+02
  19.410 -0.7091E-82  0.2800E+02
  19.420 -0.7093E-82  0.2800E+02
  19.430 -0.7095E-82  0.2800E+02
  19.440 -0.7097E-82  0.2800E+02
  19.450 -0.7099E-82  0.2800E+02
  19.460 -0.7101E-82  0.2800E+02
  19.470 -0.7103E-82  0.2800E+02
  19.480 -0.7105E-82  0.2800E+02
  19.490 -0.7107E-82  0.2800E+02
  19.500 -0.7109E-82  0.2800E+02
  19.510 -0.7111E-82  0.2800E+02
  19.520 -0.7113E-82  0.2800E+02
  19.530 -0.7115E-82  0.2800E+02
  19.540 -0.7117E-82  0.2800E+02
  19.550 -0.7119E-82  0.2800E+02
  19.560 -0.7121E-82  0.2800E+02
  19.570 -0.7123E-82  0.2800E+02
  19.580 -0.7125E-82  0.2800E+02
  19.590 -0.7127E-82  0.2800E+02
  19.600 -0.7129E-82  0.2800E+02
  19.610 -0.7131E-82  0.2800E+02
  19.620 -0.7133E-82  0.2800E+02
  19.630 -0.7135E-82  0.2800E+02
  19.640 -0.7137E-82  0.2800E+02
  19.650 -0.7139E-82  0.2800E+02
  19.660 -0.7141E-82  0.2800E+02
  19.670 -0.7143E-82  0.2800E+02
  19.680 -0.7145E-82  0.2800E+02
  19.690 -0.7147E-82  0.2800E+02
  19.700 -0.7149E-82  0.2800E+02
  19.710 -0.7151E-82  0.2800E+02
  19.720 -0.7153E-82  0.2800E+02
  19.730 -0.7155E-82  0.2800E+02
  19.740 -0.7157E-82  0.2800E+02
  19.750 -0.7159E-82  0.2800E+02
  19.760 -0.7161E-82  0.2800E+02
  19.770 -0.7163E-82  0.2800E+02
  19.780 -0.7165E-82  0.2800E+02
  19.790 -0.7167E-82  0.2800E+02
  19.800 -0.7169E-82  0.2800E+02
  19.810 -0.7171E-82  0.2800E+02
  19.820 -0.7173E-82  0.2800E+02
  19.830 -0.7175E-82  0.2800E+02
  19.840 -0.7177E-82  0.2800E+02
  19.850 -0.7179E-82  0.2800E+02
  19.860 -0.7181E-82  0.2800E+02
  19.870 -0.7183E-82  0.2800E+02
  19.880 -0.7185E-82  0.2800E+02
  19.890 -0.7187E-82  0.2800E+02
  19.900 -0.7189E-82  0.2800E+02
  19.910 -0.7191E-82  0.2800E+02
  19.920 -0.7193E-82  0.2800E+02
  19.930 -0.7195E-82  0.2800E+02
  19.940 -0.7197E-82  0.2800E+02
  19.950 -0.7199E-82  0.2800E+02
  19.960 -0.7201E-82  0.2800E+02
  19.970 -0.7203E-82  0.2800E+02
  19.980 -0.7205E-82  0.2800E+02
  19.990 -0.7207E-82  0.2800E+02
  20.000 -0.7209E-82  0.2800E+02
  20.010 -0.7211E-82  0.2800E+02
  20.020 -0.7213E-82  0.2800E+02
  20.030 -0.7215E-82  0.2800E+02
  20.040 -0.7217E-82  0.2800E+02
  20.050 -0.7219E-82  0.2800E+02
  20.060 -0.7221E-82  0.2800E+02
  20.070 -0.7223E-82  0.2800E+02
  20.080 -0.7225E-82  0.2800E+02
  20.090 -0.7227E-82  0.2800E+02
  20.100 -0.7229E-82  0.2800E+02
  20.110 -0.7231E-82  0.2800E+02
  20.120 -0.7233E-82  0.2800E+02
  20.130 -0.7235E-82  0.2800E+02
  20.140 -0.7237E-82  0.2800E+02
  20.150 -0.7239E-82  0.2800E+02
  20.160 -0.7241E-82  0.2800E+02
  20.170 -0.7243E-82  0.2800E+02
  20.180 -0.7245E-82  0.2800E+02
  20.190 -0.7247E-82  0.2800E+02
  20.200 -0.7248E-82  0.2800E+02
  20.210 -0.7250E-82  0.2800E+02
  20.220 -0.7252E-82  0.2800E+02
  20.230 -0.7254E-82  0.2800E+02
  20.240 -0.7256E-82  0.2800E+02
  20.250 -0.7258E-82  0.2800E+02
  20.260 -0.7260E-82  0.2800E+02
  20.270 -0.7262E-82  0.2800E+02
  20.280 -0.7264E-82  0.2800E+02
  20.290 -0.7266E-82  0.2800E+02
  20.300 -0.7268E-82  0.2800E+02
  20.310 -0.7270E-82  0.2800E+02
  20.320 -0.7272E-82  0.2800E+02
  20.330 -0.7274E-82  0.2800E+02
  20.340 -0.7276E-82  0.2800E+02
  20.350 -0.7278E-82  0.2800E+02
  20.360 -0.7280E-82  0.2800E+02
  20.370 -0.7282E-82  0.2800E+02
  20.380 -0.7284E-82  0.2800E+02
  20.390 -0.7286E-82  0.2800E+02
  20.400 -0.7288E-82  0.2800E+02
  20.410 -0.7290E-82  0.2800E+02
  20.420 -0.7292E-82  0.2800E+02
  20.430 -0.7294E-82  0.2800E+02
  20.440 -0.7296E-82  0.2800E+02
  20.450 -0.7298E-82  0.2800E+02
  20.460 -0.7300E-82  0.2800E+02
  20.470 -0.7302E-82  0.2800E+02
  20.480 -0.7304E-82  0.2800E+02
  20.490 -0.7306E-82  0.2800E+02
  20.500 -0.7308E-82  0.2800E+02
  20.510 -0.7310E-82  0.2800E+02
  20.520 -0.7312E-82  0.2800E+02
  20.530 -0.7314E-82  0.2800E+02
  20.540 -0.7316E-82  0.2800E+02
  20.550 -0.7318E-82  0.2800E+02
  20.560 -0.7320E-82  0.2800E+02
  20.570 -0.7322E-82  0.2800E+02
  20.580 -0.7324E-82  0.2800E+02
  20.590 -0.7326E-82  0.2800E+02
  20.600 -0.7328E-82  0.2800E+02
  20.610 -0.7330E-82  0.2800E+02
  20.620 -0.7332E-82  0.2800E+02
  20.630 -0.7334E-82  0.2800E+02
  20.640 -0.7336E-82  0.2800E+02
  20.650 -0.7338E-82  0.2800E+02
  20.660 -0.7340E-82  0.2800E+02
  20.670 -0.7342E-82  0.2800E+02
  20.680 -0.7344E-82  0.2800E+02
  20.690 -0.7346E-82  0.2800E+02
  20.700 -0.7348E-82  0.2800E+02
  20.710 -0.7350E-82  0.2800E+02
  20.720 -0.7352E-82  0.2800E+02
  20.730 -0.7354E-82  0.2800E+02
  20.740 -0.7356E-82  0.2800E+02
  20.750 -0.7358E-82  0.2800E+02
  20.760 -0.7360E-82  0.2800E+02
  20.770 -0.7362E-82  0.2800E+02
  20.780 -0.7364E-82  0.2800E+02
  20.790 -0.7366E-82  0.2800E+02
  20.800 -0.7368E-82  0.2800E+02
  20.810 -0.7370E-82  0.2800E+02
  20.820 -0.7372E-82  0.2800E+02
  20.830 -0.7374E-82  0.2800E+02
  20.840 -0.7376E-82  0.2800E+02
  20.850 -0.7378E-82  0.2800E+02
  20.860 -0.7380E-82  0.2800E+02
  20.870 -0.7382E-82  0.2800E+02
  20.880 -0.7384E-82  0.2800E+02
  20.890 -0.7386E-82  0.2800E+02
  20.900 -0.7388E-82  0.2800E+02
  20.910 -0.7390E-82  0.2800E+02
  20.920 -0.7392E-82  0.2800E+02
  20.930 -0.7394E-82  0.2800E+02
  20.940 -0.7396E-82  0.2800E+02
  20.950 -0.7398E-82  0.2800E+02
  20.960 -0.7400E-82  0.2800E+02
  20.970 -0.7402E-82  0.2800E+02
  20.980 -0.7404E-82  0.2800E+02
  20.990 -0.7406E-82  0.2800E+02
  21.000 -0.7407E-82  0.2800E+02
  21.010 -0.7409E-82  0.2800E+02
  21.020 -0.7411E-82  0.2800E+02
  21.030 -0.7413E-82  0.2800E+02
  21.040 -0.7415E-82  0.2800E+02
  21.050 -0.7417E-82  0.2800E+02
  21.060 -0.7419E-82  0.2800E+02
  21.070 -0.7421E-82  0.2800E+02
  21.080 -0.7423E-82  0.2800E+02
  21.090 -0.7425E-82  0.2800E+02
  21.100 -0.7427E-82  0.2800E+02
  21.110 -0.7429E-82  0.2800E+02
  21.120 -0.7431E-82  0.2800E+02
  21.130 -0.7433E-82  0.2800E+02
  21.140 -0.7435E-82  0.2800E+02
  21.150 -0.7437E-82  0.2800E+02
  21.160 -0.7439E-82  0.2800E+02
  21.170 -0.7441E-82  0.2800E+02
  21.180 -0.7443E-82  0.2800E+02
  21.190 -0.7445E-82  0.2800E+02
  21.200 -0.7447E-82  0.2800E+02
  21.210 -0.7449E-82  0.2800E+02
  21.220 -0.7451E-82  0.2800E+02
  21.230 -0.7453E-82  0.2800E+02
  21.240 -0.7455E-82  0.2800E+02
  21.250 -0.7457E-82  0.2800E+02
  21.260 -0.7459E-82  0.2800E+02
  21.270 -0.7461E-82  0.2800E+02
  21.280 -0.7463E-82  0.2800E+02
  21.290 -0.7465E-82  0.2800E+02
  21.300 -0.7467E-82  0.2800E+02
  21.310 -0.7469E-82  0.2800E+02
  21.320 -0.7471E-82  0.2800E+02
  21.330 -0.7473E-82  0.2800E+02
  21.340 -0.7475E-82  0.2800E+02
  21.350 -0.7477E-82  0.2800E+02
  21.360 -0.7479E-82  0.2800E+02
  21.370 -0.7481E-82  0.2800E+02
  21.380 -0.7483E-82  0.2800E+02
  21.390 -0.7485E-82  0.2800E+02
  21.400 -0.7487E-82  0.2800E+02
  21.410 -0.7489E-82  0.2800E+02
  21.420 -0.7491E-82  0.2800E+02
  21.430 -0.7493E-82  0.2800E+02
  21.440 -0.7495E-82  0.2800E+02
  21.450 -0.7497E-82  0.2800E+02
  21.460 -0.7499E-82  0.2800E+02
  21.470 -0.7501E-82  0.2800E+02
  21.480 -0.7503E-82  0.2800E+02
  21.490 -0.7505E-82  0.2800E+02
  21.500 -0.7507E-82  0.2800E+02
  21.510 -0.7509E-82  0.2800E+02
  21.520 -0.7511E-82  0.2800E+02
  21.530 -0.7513E-82  0.2800E+02
  21.540 -0.7515E-82  0.2800E+02
  21.550 -0.7517E-82  0.2800E+02
  21.560 -0.7519E-82  0.2800E+02
  21.570 -0.7521E-82  0.2800E+02
  21.580 -0.7523E-82  0.2800E+02
  21.590 -0.7525E-82  0.2800E+02
  21.600 -0.7527E-82  0.2800E+02
  21.610 -0.7529E-82  0.2800E+02
  21.620 -0.7531E-82  0.2800E+02
  21.630 -0.7533E-82  0.2800E+02
  21.640 -0.7535E-82  0.2800E+02
  21.650 -0.7537E-82  0.2800E+02
  21.660 -0.7539E-82  0.2800E+02
  21.670 -0.7541E-82  0.2800E+02
  21.680 -0.7543E-82  0.2800E+02
  21.690 -0.7545E-82  0.2800E+02
  21.700 -0.7547E-82  0.2800E+02
  21.710 -0.7549E-82  0.2800E+02
  21.720 -0.7551E-82  0.2800E+02
  21.730 -0.7553E-82  0.2800E+02
  21.740 -0.7555E-82  0.2800E+02
  21.750 -0.7557E-82  0.2800E+02
  21.760 -0.7559E-82  0.2800E+02
  21.770 -0.7561E-82  0.2800E+02
  21.780 -0.7563E-82  0.2800E+02
  21.790 -0.7565E-82  0.2800E+02
  21.800 -0.7567E-82  0.2800E+02
  21.810 -0.7568E-82  0.2800E+02
  21.820 -0.7570E-82  0.2800E+02
  21.830 -0.7572E-82  0.2800E+02
  21.840 -0.7574E-82  0.2800E+02
  21.850 -0.7576E-82  0.2800E+02
  21.860 -0.7578E-82  0.2800E+02
  21.870 -0.7580E-82  0.2800E+02
  21.880 -0.7582E-82  0.2800E+02
  21.890 -0.7584E-82  0.2800E+02
  21.900 -0.7586E-82  0.2800E+02
  21.910 -0.7588E-82  0.2800E+02
  21.920 -0.7590E-82  0.2800E+02
  21.930 -0.7592E-82  0.2800E+02
  21.940 -0.7594E-82  0.2800E+02
  21.950 -0.7596E-82  0.2800E+02
  21.960 -0.7598E-82  0.2800E+02
  21.970 -0.7600E-82  0.2800E+02
  21.980 -0.7602E-82  0.2800E+02
  21.990 -0.7604E-82  0.2800E+02
  22.000 -0.7606E-82  0.2800E+02
  22.010 -0.7608E-82  0.2800E+02
  22.020 -0.7610E-82  0.2800E+02
  22.030 -0.7612E-82  0.2800E+02
  22.040 -0.7614E-82  0.2800E+02
  22.050 -0.7616E-82  0.2800E+02
  22.060 -0.7618E-82  0.2800E+02
  22.070 -0.7620E-82  0.2800E+02
  22.080 -0.7622E-82  0.2800E+02
  22.090 -0.7624E-82  0.2800E+02
  22.100 -0.7626E-82  0.2800E+02
  22.110 -0.7628E-82  0.2800E+02
  22.120 -0.7630E-82  0.2800E+02
  22.130 -0.7632E-82  0.2800E+02
  22.140 -0.7634E-82  0.2800E+02
  22.150 -0.7636E-82  0.2800E+02
  22.160 -0.7638E-82  0.2800E+02
  22.170 -0.7640E-82  0.2800E+02
  22.180 -0.7642E-82  0.2800E+02
  22.190 -0.7644E-82  0.2800E+02
  22.200 -0.7646E-82  0.2800E+02
  22.210 -0.7648E-82  0.2800E+02
  22.220 -0.7650E-82  0.2800E+02
  22.230 -0.7652E-82  0.2800E+02
  22.240 -0.7654E-82  0.2800E+02
  22.250 -0.7656E-82  0.2800E+02
  22.260 -0.7658E-82  0.2800E+02
  22.270 -0.7660E-82  0.2800E+02
  22.280 -0.7662E-82  0.2800E+02
  22.290 -0.7664E-82  0.2800E+02
  22.300 -0.7666E-82  0.2800E+02
  22.310 -0.7668E-82  0.2800E+02
  22.320 -0.7670E-82  0.2800E+02
  22.330 -0.7672E-82  0.2800E+02
  22.340 -0.7674E-82  0.2800E+02
  22.350 -0.7676E-82  0.2800E+02
  22.360 -0.7678E-82  0.2800E+02
  22.370 -0.7680E-82  0.2800E+02
  22.380 -0.7682E-82  0.2800E+02
  22.390 -0.7684E-82  0.2800E+02
  22.400 -0.7686E-82  0.2800E+02
  22.410 -0.7688E-82  0.2800E+02
  22.420 -0.7690E-82  0.2800E+02
  22.430 -0.7692E-82  0.2800E+02
  22.440 -0.7694E-82  0.2800E+02
  22.450 -0.7696E-82  0.2800E+02
  22.460 -0.7698E-82  0.2800E+02
  22.470 -0.7700E-82  0.2800E+02
  22.480 -0.7702E-82  0.2800E+02
  22.490 -0.7704E-82  0.2800E+02
  22.500 -0.7706E-82  0.2800E+02
  22.510 -0.7708E-82  0.2800E+02
  22.520 -0.7710E-82  0.2800E+02
  22.530 -0.7712E-82  0.2800E+02
  22.540 -0.7714E-82  0.2800E+02
  22.550 -0.7716E-82  0.2800E+02
  22.560 -0.7718E-82  0.2800E+02
  22.570 -0.7720E-82  0.2800E+02
  22.580 -0.7722E-82  0.2800E+02
  22.590 -0.7724E-82  0.2800E+02
  22.600 -0.7726E-82  0.2800E+02
  22.610 -0.7727E-82  0.2800E+02
  22.620 -0.7729E-82  0.2800E+02
  22.630 -0.7731E-82  0.2800E+02
  22.640 -0.7733E-82  0.2800E+02
  22.650 -0.7735E-82  0.2800E+02
  22.660 -0.7737E-82  0.2800E+02
  22.670 -0.7739E-82  0.2800E+02
  22.680 -0.7741E-82  0.2800E+02
  22.690 -0.7743E-82  0.2800E+02
  22.700 -0.7745E-82  0.2800E+02
  22.710 -0.7747E-82  0.2800E+02
  22.720 -0.7749E-82  0.2800E+02
  22.730 -0.7751E-82  0.2800E+02
  22.740 -0.7753E-82  0.2800E+02
  22.750 -0.7755E-82  0.2800E+02
  22.760 -0.7757E-82  0.2800E+02
  22.770 -0.7759E-82  0.2800E+02
  22.780 -0.7761E-82  0.2800E+02
  22.790 -0.7763E-82  0.2800E+02
  22.800 -0.7765E-82  0.2800E+02
  22.810 -0.7767E-82  0.2800E+02
  22.820 -0.7769E-82  0.2800E+02
  22.830 -0.7771E-82  0.2800E+02
  22.840 -0.7773E-82  0.2800E+02
  22.850 -0.7775E-82  0.2800E+02
  22.860 -0.7777E-82  0.2800E+02
  22.870 -0.7779E-82  0.2800E+02
  22.880 -0.7781E-82  0.2800E+02
  22.890 -0.7783E-82  0.2800E+02
  22.900 -0.7785E-82  0.2800E+02
  22.910 -0.7787E-82  0.2800E+02
  22.920 -0.7789E-82  0.2800E+02
  22.930 -0.7791E-82  0.2800E+02
  22.940 -0.7793E-82  0.2800E+02
  22.950 -0.7795E-82  0.2800E+02
  22.960 -0.7797E-82  0.2800E+02
  22.970 -0.7799E-82  0.2800E+02
  22.980 -0.7801E-82  0.2800E+02
  22.990 -0.7803E-82  0.2800E+02
  23.000 -0.7805E-82  0.2800E+02
  23.010 -0.7807E-82  0.2800E+02
  23.020 -0.7809E-82  0.2800E+02
  23.030 -0.7811E-82  0.2800E+02
  23.040 -0.7813E-82  0.2800E+02
  23.050 -0.7815E-82  0.2800E+02
  23.060 -0.7817E-82  0.2800E+02
  23.070 -0.7819E-82  0.2800E+02
  23.080 -0.7821E-82  0.2800E+02
  23.090 -0.7823E-82  0.2800E+02
  23.100 -0.7825E-82  0.2800E+02
  23.110 -0.7827E-82  0.2800E+02
  23.120 -0.7829E-82  0.2800E+02
  23.130 -0.7831E-82  0.2800E+02
  23.140 -0.7833E-82  0.2800E+02
  23.150 -0.7835E-82  0.2800E+02
  23.160 -0.7837E-82  0.2800E+02
  23.170 -0.7839E-82  0.2800E+02
  23.180 -0.7841E-82  0.2800E+02
  23.190 -0.7843E-82  0.2800E+02
  23.200 -0.7845E-82  0.2800E+02
  23.210 -0.7847E-82  0.2800E+02
  23.220 -0.7849E-82  0.2800E+02
  23.230 -0.7851E-82  0.2800E+02
  23.240 -0.7853E-82  0.2800E+02
  23.250 -0.7855E-82  0.2800E+02
  23.260 -0.7857E-82  0.2800E+02
  23.270 -0.7859E-82  0.2800E+02
  23.280 -0.7861E-82  0.2800E+02
  23.290 -0.7863E-82  0.2800E+02
  23.300 -0.7865E-82  0.2800E+02
  23.310 -0.7867E-82  0.2800E+02
  23.320 -0.7869E-82  0.2800E+02
  23.330 -0.7871E-82  0.2800E+02
  23.340 -0.7873E-82  0.2800E+02
  23.350 -0.7875E-82  0.2800E+02
  23.360 -0.7877E-82  0.2800E+02
  23.370 -0.7879E-82  0.2800E+02
  23.380 -0.7881E-82  0.2800E+02
  23.390 -0.7883E-82  0.2800E+02
  23.400 -0.7885E-82  0.2800E+02
  23.410 -0.7886E-82  0.2800E+02
  23.420 -0.7888E-82  0.2800E+02
  23.430 -0.7890E-82  0.2800E+02
  23.440 -0.7892E-82  0.2800E+02
  23.450 -0.7894E-82  0.2800E+02
  23.460 -0.7896E-82  0.2800E+02
  23.470 -0.7898E-82  0.2800E+02
  23.480 -0.7900E-82  0.2800E+02
  23.490 -0.7902E-82  0.2800E+02
  23.500 -0.7904E-82  0.2800E+02
  23.510 -0.7906E-82  0.2800E+02
  23.520 -0.7908E-82  0.2800E+02
  23.530 -0.7910E-82  0.2800E+02
  23.540 -0.7912E-82  0.2800E+02
  23.550 -0.7914E-82  0.2800E+02
  23.560 -0.7916E-82  0.2800E+02
  23.570 -0.7918E-82  0.2800E+02
  23.580 -0.7920E-82  0.2800E+02
  23.590 -0.7922E-82  0.2800E+02
  23.600 -0.7924E-82  0.2800E+02
  23.610 -0.7926E-82  0.2800E+02
  23.620 -0.7928E-82  0.2800E+02
  23.630 -0.7930E-82  0.2800E+02
  23.640 -0.7932E-82  0.2800E+02
  23.650 -0.7934E-82  0.2800E+02
  23.660 -0.7936E-82  0.2800E+02
  23.670 -0.7938E-82  0.2800E+02
  23.680 -0.7940E-82  0.2800E+02
  23.690 -0.7942E-82  0.2800E+02
  23.700 -0.7944E-82  0.2800E+02
  23.710 -0.7946E-82  0.2800E+02
  23.720 -0.7948E-82  0.2800E+02
  23.730 -0.7950E-82  0.2800E+02
  23.740 -0.7952E-82  0.2800E+02
  23.750 -0.7954E-82  0.2800E+02
  23.760 -0.7956E-82  0.2800E+02
  23.770 -0.7958E-82  0.2800E+02
  23.780 -0.7960E-82  0.2800E+02
  23.790 -0.7962E-82  0.2800E+02
  23.800 -0.7964E-82  0.2800E+02
  23.810 -0.7966E-82  0.2800E+02
  23.820 -0.7968E-82  0.2800E+02
  23.830 -0.7970E-82  0.2800E+02
  23.840 -0.7972E-82  0.2800E+02
  23.850 -0.7974E-82  0.2800E+02
  23.860 -0.7976E-82  0.2800E+02
  23.870 -0.7978E-82  0.2800E+02
  23.880 -0.7980E-82  0.2800E+02
  23.890 -0.7982E-82  0.2800E+02
  23.900 -0.7984E-82  0.2800E+02
  23.910 -0.7986E-82  0.2800E+02
  23.920 -0.7988E-82  0.2800E+02
  23.930 -0.7990E-82  0.2800E+02
  23.940 -0.7992E-82  0.2800E+02
  23.950 -0.7994E-82  0.2800E+02
  23.960 -0.7996E-82  0.2800E+02
  23.970 -0.7998E-82  0.2800E+02
  23.980 -0.8000E-82  0.2800E+02
  23.990 -0.8002E-82  0.2800E+02
  24.000 -0.8004E-82  0.2800E+02
  24.010 -0.8006E-82  0.2800E+02
  24.020 -0.8008E-82  0.2800E+02
  24.030 -0.8010E-82  0.2800E+02
  24.040 -0.8012E-82  0.2800E+02
  24.050 -0.8014E-82  0.2800E+02
  24.060 -0.8016E-82  0.2800E+02
  24.070 -0.8018E-82  0.2800E+02
  24.080 -0.8020E-82  0.2800E+02
  24.090 -0.8022E-82  0.2800E+02
  24.100 -0.8024E-82  0.2800E+02
  24.110 -0.8026E-82  0.2800E+02
  24.120 -0.8028E-82  0.2800E+02
  24.130 -0.8030E-82  0.2800E+02
  24.140 -0.8032E-82  0.2800E+02
  24.150 -0.8034E-82  0.2800E+02
  24.160 -0.8036E-82  0.2800E+02
  24.170 -0.8038E-82  0.2800E+02
  24.180 -0.8040E-82  0.2800E+02
  24.190 -0.8042E-82  0.2800E+02
  24.200 -0.8044E-82  0.2800E+02
  24.210 -0.8045E-82  0.2800E+02
  24.220 -0.8047E-82  0.2800E+02
  24.230 -0.8049E-82  0.2800E+02
  24.240 -0.8051E-82  0.2800E+02
  24.250 -0.8053E-82  0.2800E+02
  24.260 -0.8055E-82  0.2800E+02
  24.270 -0.8057E-82  0.2800E+02
  24.280 -0.8059E-82  0.2800E+02
  24.290 -0.8061E-82  0.2800E+02
  24.300 -0.8063E-82  0.2800E+02
  24.310 -0.8065E-82  0.2800E+02
  24.320 -0.8067E-82  0.2800E+02
  24.330 -0.8069E-82  0.2800E+02
  24.340 -0.8071E-82  0.2800E+02
  24.350 -0.8073E-82  0.2800E+02
  24.360 -0.8075E-82  0.2800E+02
  24.370 -0.8077E-82  0.2800E+02
  24.380 -0.8079E-82  0.2800E+02
  24.390 -0.8081E-82  0.2800E+02
  24.400 -0.8083E-82  0.2800E+02
  24.410 -0.8085E-82  0.2800E+02
  24.420 -0.8087E-82  0.2800E+02
  24.430 -0.8089E-82  0.2800E+02
  24.440 -0.8091E-82  0.2800E+02
  24.450 -0.8093E-82  0.2800E+02
  24.460 -0.8095E-82  0.2800E+02
  24.470 -0.8097E-82  0.2800E+02
  24.480 -0.8099E-82  0.2800E+02
  24.490 -0.8101E-82  0.2800E+02
  24.500 -0.8103E-82  0.2800E+02
  24.510 -0.8105E-82  0.2800E+02
  24.520 -0.8107E-82  0.2800E+02
  24.530 -0.8109E-82  0.2800E+02
  24.540 -0.8111E-82  0.2800E+02
  24.550 -0.8113E-82  0.2800E+02
  24.560 -0.8115E-82  0.2800E+02
  24.570 -0.8117E-82  0.2800E+02
  24.580 -0.8119E-82  0.2800E+02
  24.590 -0.8121E-82  0.2800E+02
  24.600 -0.8123E-82  0.2800E+02
  24.610 -0.8125E-82  0.2800E+02
  24.620 -0.8127E-82  0.2800E+02
  24.630 -0.8129E-82  0.2800E+02
  24.640 -0.8131E-82  0.2800E+02
  24.650 -0.8133E-82  0.2800E+02
  24.660 -0.8135E-82  0.2800E+02
  24.670 -0.8137E-82  0.2800E+02
  24.680 -0.8139E-82  0.2800E+02
  24.690 -0.8141E-82  0.2800E+02
  24.700 -0.8143E-82  0.2800E+02
  24.710 -0.8145E-82  0.2800E+02
  24.720 -0.8147E-82  0.2800E+02
  24.730 -0.8149E-82  0.2800E+02
  24.740 -0.8151E-82  0.2800E+02
  24.750 -0.8153E-82  0.2800E+02
  24.760 -0.8155E-82  0.2800E+02
  24.770 -0.8157E-82  0.2800E+02
  24.780 -0.8159E-82  0.2800E+02
  24.790 -0.8161E-82  0.2800E+02
  24.800 -0.8163E-82  0.2800E+02
  24.810 -0.8165E-82  0.2800E+02
  24.820 -0.8167E-82  0.2800E+02
  24.830 -0.8169E-82  0.2800E+02
  24.840 -0.8171E-82  0.2800E+02
  24.850 -0.8173E-82  0.2800E+02
  24.860 -0.8175E-82  0.2800E+02
  24.870 -0.8177E-82  0.2800E+02
  24.880 -0.8179E-82  0.2800E+02
  24.890 -0.8181E-82  0.2800E+02
  24.900 -0.8183E-82  0.2800E+02
  24.910 -0.8185E-82  0.2800E+02
  24.920 -0.8187E-82  0.2800E+02
  24.930 -0.8189E-82  0.2800E+02
  24.940 -0.8191E-82  0.2800E+02
  24.950 -0.8193E-82  0.2800E+02
  24.960 -0.8195E-82  0.2800E+02
  24.970 -0.8197E-82  0.2800E+02
  24.980 -0.8199E-82  0.2800E+02
  24.990 -0.8201E-82  0.2800E+02
  25.000 -0.8203E-82  0.2800E+02
